#  E (eV)   dos(E)     Int dos(E) EFermi =   17.878 eV
 -30.000 -0.2174E-79 -0.1087E-80
 -29.950 -0.2171E-79 -0.2173E-80
 -29.900 -0.2169E-79 -0.3257E-80
 -29.850 -0.2167E-79 -0.4340E-80
 -29.800 -0.2164E-79 -0.5423E-80
 -29.750 -0.2162E-79 -0.6503E-80
 -29.700 -0.2159E-79 -0.7583E-80
 -29.650 -0.2157E-79 -0.8662E-80
 -29.600 -0.2155E-79 -0.9739E-80
 -29.550 -0.2152E-79 -0.1082E-79
 -29.500 -0.2150E-79 -0.1189E-79
 -29.450 -0.2147E-79 -0.1296E-79
 -29.400 -0.2145E-79 -0.1404E-79
 -29.350 -0.2143E-79 -0.1511E-79
 -29.300 -0.2140E-79 -0.1618E-79
 -29.250 -0.2138E-79 -0.1725E-79
 -29.200 -0.2135E-79 -0.1831E-79
 -29.150 -0.2133E-79 -0.1938E-79
 -29.100 -0.2131E-79 -0.2045E-79
 -29.050 -0.2128E-79 -0.2151E-79
 -29.000 -0.2126E-79 -0.2257E-79
 -28.950 -0.2124E-79 -0.2364E-79
 -28.900 -0.2121E-79 -0.2470E-79
 -28.850 -0.2119E-79 -0.2576E-79
 -28.800 -0.2116E-79 -0.2681E-79
 -28.750 -0.2114E-79 -0.2787E-79
 -28.700 -0.2112E-79 -0.2893E-79
 -28.650 -0.2109E-79 -0.2998E-79
 -28.600 -0.2107E-79 -0.3103E-79
 -28.550 -0.2105E-79 -0.3209E-79
 -28.500 -0.2102E-79 -0.3314E-79
 -28.450 -0.2100E-79 -0.3419E-79
 -28.400 -0.2097E-79 -0.3524E-79
 -28.350 -0.2095E-79 -0.3628E-79
 -28.300 -0.2093E-79 -0.3733E-79
 -28.250 -0.2090E-79 -0.3838E-79
 -28.200 -0.2088E-79 -0.3942E-79
 -28.150 -0.2086E-79 -0.4046E-79
 -28.100 -0.2083E-79 -0.4150E-79
 -28.050 -0.2081E-79 -0.4254E-79
 -28.000 -0.2079E-79 -0.4358E-79
 -27.950 -0.2076E-79 -0.4462E-79
 -27.900 -0.2074E-79 -0.4566E-79
 -27.850 -0.2072E-79 -0.4669E-79
 -27.800 -0.2069E-79 -0.4773E-79
 -27.750 -0.2067E-79 -0.4876E-79
 -27.700 -0.2065E-79 -0.4979E-79
 -27.650 -0.2062E-79 -0.5083E-79
 -27.600 -0.2060E-79 -0.5186E-79
 -27.550 -0.2058E-79 -0.5288E-79
 -27.500 -0.2055E-79 -0.5391E-79
 -27.450 -0.2053E-79 -0.5494E-79
 -27.400 -0.2051E-79 -0.5596E-79
 -27.350 -0.2048E-79 -0.5699E-79
 -27.300 -0.2046E-79 -0.5801E-79
 -27.250 -0.2044E-79 -0.5903E-79
 -27.200 -0.2041E-79 -0.6005E-79
 -27.150 -0.2039E-79 -0.6107E-79
 -27.100 -0.2037E-79 -0.6209E-79
 -27.050 -0.2034E-79 -0.6311E-79
 -27.000 -0.2032E-79 -0.6412E-79
 -26.950 -0.2030E-79 -0.6514E-79
 -26.900 -0.2027E-79 -0.6615E-79
 -26.850 -0.2025E-79 -0.6717E-79
 -26.800 -0.2023E-79 -0.6818E-79
 -26.750 -0.2020E-79 -0.6919E-79
 -26.700 -0.2018E-79 -0.7020E-79
 -26.650 -0.2016E-79 -0.7120E-79
 -26.600 -0.2013E-79 -0.7221E-79
 -26.550 -0.2011E-79 -0.7322E-79
 -26.500 -0.2009E-79 -0.7422E-79
 -26.450 -0.2007E-79 -0.7522E-79
 -26.400 -0.2004E-79 -0.7623E-79
 -26.350 -0.2002E-79 -0.7723E-79
 -26.300 -0.2000E-79 -0.7823E-79
 -26.250 -0.1997E-79 -0.7923E-79
 -26.200 -0.1995E-79 -0.8022E-79
 -26.150 -0.1993E-79 -0.8122E-79
 -26.100 -0.1990E-79 -0.8221E-79
 -26.050 -0.1988E-79 -0.8321E-79
 -26.000 -0.1986E-79 -0.8420E-79
 -25.950 -0.1984E-79 -0.8519E-79
 -25.900 -0.1981E-79 -0.8618E-79
 -25.850 -0.1979E-79 -0.8717E-79
 -25.800 -0.1977E-79 -0.8816E-79
 -25.750 -0.1974E-79 -0.8915E-79
 -25.700 -0.1972E-79 -0.9013E-79
 -25.650 -0.1970E-79 -0.9112E-79
 -25.600 -0.1968E-79 -0.9210E-79
 -25.550 -0.1965E-79 -0.9309E-79
 -25.500 -0.1963E-79 -0.9407E-79
 -25.450 -0.1961E-79 -0.9505E-79
 -25.400 -0.1959E-79 -0.9603E-79
 -25.350 -0.1956E-79 -0.9701E-79
 -25.300 -0.1954E-79 -0.9798E-79
 -25.250 -0.1952E-79 -0.9896E-79
 -25.200 -0.1949E-79 -0.9993E-79
 -25.150 -0.1947E-79 -0.1009E-78
 -25.100 -0.1945E-79 -0.1019E-78
 -25.050 -0.1943E-79 -0.1029E-78
 -25.000 -0.1940E-79 -0.1038E-78
 -24.950 -0.1938E-79 -0.1048E-78
 -24.900 -0.1936E-79 -0.1058E-78
 -24.850 -0.1934E-79 -0.1067E-78
 -24.800 -0.1931E-79 -0.1077E-78
 -24.750 -0.1929E-79 -0.1087E-78
 -24.700 -0.1927E-79 -0.1096E-78
 -24.650 -0.1925E-79 -0.1106E-78
 -24.600 -0.1922E-79 -0.1115E-78
 -24.550 -0.1920E-79 -0.1125E-78
 -24.500 -0.1918E-79 -0.1135E-78
 -24.450 -0.1916E-79 -0.1144E-78
 -24.400 -0.1913E-79 -0.1154E-78
 -24.350 -0.1911E-79 -0.1163E-78
 -24.300 -0.1909E-79 -0.1173E-78
 -24.250 -0.1907E-79 -0.1182E-78
 -24.200 -0.1905E-79 -0.1192E-78
 -24.150 -0.1902E-79 -0.1201E-78
 -24.100 -0.1900E-79 -0.1211E-78
 -24.050 -0.1898E-79 -0.1220E-78
 -24.000 -0.1896E-79 -0.1230E-78
 -23.950 -0.1893E-79 -0.1239E-78
 -23.900 -0.1891E-79 -0.1249E-78
 -23.850 -0.1889E-79 -0.1258E-78
 -23.800 -0.1887E-79 -0.1268E-78
 -23.750 -0.1884E-79 -0.1277E-78
 -23.700 -0.1882E-79 -0.1287E-78
 -23.650 -0.1880E-79 -0.1296E-78
 -23.600 -0.1878E-79 -0.1305E-78
 -23.550 -0.1876E-79 -0.1315E-78
 -23.500 -0.1873E-79 -0.1324E-78
 -23.450 -0.1871E-79 -0.1333E-78
 -23.400 -0.1869E-79 -0.1343E-78
 -23.350 -0.1867E-79 -0.1352E-78
 -23.300 -0.1865E-79 -0.1361E-78
 -23.250 -0.1862E-79 -0.1371E-78
 -23.200 -0.1860E-79 -0.1380E-78
 -23.150 -0.1858E-79 -0.1389E-78
 -23.100 -0.1856E-79 -0.1399E-78
 -23.050 -0.1854E-79 -0.1408E-78
 -23.000 -0.1851E-79 -0.1417E-78
 -22.950 -0.1849E-79 -0.1426E-78
 -22.900 -0.1847E-79 -0.1436E-78
 -22.850 -0.1845E-79 -0.1445E-78
 -22.800 -0.1843E-79 -0.1454E-78
 -22.750 -0.1840E-79 -0.1463E-78
 -22.700 -0.1838E-79 -0.1472E-78
 -22.650 -0.1836E-79 -0.1482E-78
 -22.600 -0.1834E-79 -0.1491E-78
 -22.550 -0.1832E-79 -0.1500E-78
 -22.500 -0.1830E-79 -0.1509E-78
 -22.450 -0.1827E-79 -0.1518E-78
 -22.400 -0.1825E-79 -0.1527E-78
 -22.350 -0.1823E-79 -0.1536E-78
 -22.300 -0.1821E-79 -0.1546E-78
 -22.250 -0.1819E-79 -0.1555E-78
 -22.200 -0.1816E-79 -0.1564E-78
 -22.150 -0.1814E-79 -0.1573E-78
 -22.100 -0.1812E-79 -0.1582E-78
 -22.050 -0.1810E-79 -0.1591E-78
 -22.000 -0.1808E-79 -0.1600E-78
 -21.950 -0.1806E-79 -0.1609E-78
 -21.900 -0.1803E-79 -0.1618E-78
 -21.850 -0.1801E-79 -0.1627E-78
 -21.800 -0.1799E-79 -0.1636E-78
 -21.750 -0.1797E-79 -0.1645E-78
 -21.700 -0.1795E-79 -0.1654E-78
 -21.650 -0.1793E-79 -0.1663E-78
 -21.600 -0.1791E-79 -0.1672E-78
 -21.550 -0.1788E-79 -0.1681E-78
 -21.500 -0.1786E-79 -0.1690E-78
 -21.450 -0.1784E-79 -0.1699E-78
 -21.400 -0.1782E-79 -0.1708E-78
 -21.350 -0.1780E-79 -0.1716E-78
 -21.300 -0.1778E-79 -0.1725E-78
 -21.250 -0.1776E-79 -0.1734E-78
 -21.200 -0.1773E-79 -0.1743E-78
 -21.150 -0.1771E-79 -0.1752E-78
 -21.100 -0.1769E-79 -0.1761E-78
 -21.050 -0.1767E-79 -0.1770E-78
 -21.000 -0.1765E-79 -0.1778E-78
 -20.950 -0.1763E-79 -0.1787E-78
 -20.900 -0.1761E-79 -0.1796E-78
 -20.850 -0.1758E-79 -0.1805E-78
 -20.800 -0.1756E-79 -0.1814E-78
 -20.750 -0.1754E-79 -0.1822E-78
 -20.700 -0.1752E-79 -0.1831E-78
 -20.650 -0.1750E-79 -0.1840E-78
 -20.600 -0.1748E-79 -0.1849E-78
 -20.550 -0.1746E-79 -0.1857E-78
 -20.500 -0.1744E-79 -0.1866E-78
 -20.450 -0.1741E-79 -0.1875E-78
 -20.400 -0.1739E-79 -0.1884E-78
 -20.350 -0.1737E-79 -0.1892E-78
 -20.300 -0.1735E-79 -0.1901E-78
 -20.250 -0.1733E-79 -0.1910E-78
 -20.200 -0.1731E-79 -0.1918E-78
 -20.150 -0.1729E-79 -0.1927E-78
 -20.100 -0.1727E-79 -0.1936E-78
 -20.050 -0.1725E-79 -0.1944E-78
 -20.000 -0.1722E-79 -0.1953E-78
 -19.950 -0.1720E-79 -0.1961E-78
 -19.900 -0.1718E-79 -0.1970E-78
 -19.850 -0.1716E-79 -0.1979E-78
 -19.800 -0.1714E-79 -0.1987E-78
 -19.750 -0.1712E-79 -0.1996E-78
 -19.700 -0.1710E-79 -0.2004E-78
 -19.650 -0.1708E-79 -0.2013E-78
 -19.600 -0.1706E-79 -0.2021E-78
 -19.550 -0.1704E-79 -0.2030E-78
 -19.500 -0.1702E-79 -0.2038E-78
 -19.450 -0.1699E-79 -0.2047E-78
 -19.400 -0.1697E-79 -0.2055E-78
 -19.350 -0.1695E-79 -0.2064E-78
 -19.300 -0.1693E-79 -0.2072E-78
 -19.250 -0.1691E-79 -0.2081E-78
 -19.200 -0.1689E-79 -0.2089E-78
 -19.150 -0.1687E-79 -0.2098E-78
 -19.100 -0.1685E-79 -0.2106E-78
 -19.050 -0.1683E-79 -0.2114E-78
 -19.000 -0.1681E-79 -0.2123E-78
 -18.950 -0.1679E-79 -0.2131E-78
 -18.900 -0.1677E-79 -0.2140E-78
 -18.850 -0.1675E-79 -0.2148E-78
 -18.800 -0.1672E-79 -0.2156E-78
 -18.750 -0.1670E-79 -0.2165E-78
 -18.700 -0.1668E-79 -0.2173E-78
 -18.650 -0.1666E-79 -0.2181E-78
 -18.600 -0.1664E-79 -0.2190E-78
 -18.550 -0.1662E-79 -0.2198E-78
 -18.500 -0.1660E-79 -0.2206E-78
 -18.450 -0.1658E-79 -0.2215E-78
 -18.400 -0.1656E-79 -0.2223E-78
 -18.350 -0.1654E-79 -0.2231E-78
 -18.300 -0.1652E-79 -0.2239E-78
 -18.250 -0.1650E-79 -0.2248E-78
 -18.200 -0.1648E-79 -0.2256E-78
 -18.150 -0.1646E-79 -0.2264E-78
 -18.100 -0.1644E-79 -0.2272E-78
 -18.050 -0.1642E-79 -0.2281E-78
 -18.000 -0.1640E-79 -0.2289E-78
 -17.950 -0.1638E-79 -0.2297E-78
 -17.900 -0.1636E-79 -0.2305E-78
 -17.850 -0.1634E-79 -0.2313E-78
 -17.800 -0.1632E-79 -0.2321E-78
 -17.750 -0.1629E-79 -0.2330E-78
 -17.700 -0.1627E-79 -0.2338E-78
 -17.650 -0.1625E-79 -0.2346E-78
 -17.600 -0.1623E-79 -0.2354E-78
 -17.550 -0.1621E-79 -0.2362E-78
 -17.500 -0.1619E-79 -0.2370E-78
 -17.450 -0.1617E-79 -0.2378E-78
 -17.400 -0.1615E-79 -0.2386E-78
 -17.350 -0.1613E-79 -0.2394E-78
 -17.300 -0.1611E-79 -0.2402E-78
 -17.250 -0.1609E-79 -0.2410E-78
 -17.200 -0.1607E-79 -0.2419E-78
 -17.150 -0.1605E-79 -0.2427E-78
 -17.100 -0.1603E-79 -0.2435E-78
 -17.050 -0.1601E-79 -0.2443E-78
 -17.000 -0.1599E-79 -0.2451E-78
 -16.950 -0.1597E-79 -0.2459E-78
 -16.900 -0.1598E-79 -0.2467E-78
 -16.850 -0.1957E-79 -0.2476E-78
 -16.800 -0.5390E-78 -0.2746E-78
 -16.750 -0.7030E-76 -0.3789E-77
 -16.700 -0.8826E-74 -0.4451E-75
 -16.650 -0.1036E-71 -0.5225E-73
 -16.600 -0.1137E-69 -0.5736E-71
 -16.550 -0.1166E-67 -0.5887E-69
 -16.500 -0.1118E-65 -0.5647E-67
 -16.450 -0.1001E-63 -0.5064E-65
 -16.400 -0.8387E-62 -0.4244E-63
 -16.350 -0.6566E-60 -0.3325E-61
 -16.300 -0.4804E-58 -0.2435E-59
 -16.250 -0.3286E-56 -0.1667E-57
 -16.200 -0.2101E-54 -0.1067E-55
 -16.150 -0.1255E-52 -0.6382E-54
 -16.100 -0.7010E-51 -0.3569E-52
 -16.050 -0.3659E-49 -0.1865E-50
 -16.000 -0.1785E-47 -0.9113E-49
 -15.950 -0.8142E-46 -0.4162E-47
 -15.900 -0.3470E-44 -0.1777E-45
 -15.850 -0.1383E-42 -0.7090E-44
 -15.800 -0.5148E-41 -0.2645E-42
 -15.750 -0.1791E-39 -0.9222E-41
 -15.700 -0.5827E-38 -0.3006E-39
 -15.650 -0.1771E-36 -0.9157E-38
 -15.600 -0.5033E-35 -0.2608E-36
 -15.550 -0.1336E-33 -0.6943E-35
 -15.500 -0.3316E-32 -0.1728E-33
 -15.450 -0.7692E-31 -0.4019E-32
 -15.400 -0.1667E-29 -0.8738E-31
 -15.350 -0.3377E-28 -0.1776E-29
 -15.300 -0.6394E-27 -0.3375E-28
 -15.250 -0.1131E-25 -0.5994E-27
 -15.200 -0.1870E-24 -0.9951E-26
 -15.150 -0.2890E-23 -0.1544E-24
 -15.100 -0.4172E-22 -0.2240E-23
 -15.050 -0.5629E-21 -0.3038E-22
 -15.000 -0.7096E-20 -0.3852E-21
 -14.950 -0.8359E-19 -0.4565E-20
 -14.900 -0.9202E-18 -0.5057E-19
 -14.850 -0.9464E-17 -0.5238E-18
 -14.800 -0.9094E-16 -0.5071E-17
 -14.750 -0.8165E-15 -0.4590E-16
 -14.700 -0.6849E-14 -0.3884E-15
 -14.650 -0.5368E-13 -0.3072E-14
 -14.600 -0.3930E-12 -0.2272E-13
 -14.550 -0.2688E-11 -0.1571E-12
 -14.500 -0.1717E-10 -0.1016E-11
 -14.450 -0.1025E-09 -0.6139E-11
 -14.400 -0.5711E-09 -0.3469E-10
 -14.350 -0.2973E-08 -0.1833E-09
 -14.300 -0.1445E-07 -0.9059E-09
 -14.250 -0.6560E-07 -0.4186E-08
 -14.200 -0.2780E-06 -0.1809E-07
 -14.150 -0.1100E-05 -0.7309E-07
 -14.100 -0.4063E-05 -0.2762E-06
 -14.050 -0.1400E-04 -0.9764E-06
 -14.000 -0.4503E-04 -0.3228E-05
 -13.950 -0.1351E-03 -0.9982E-05
 -13.900 -0.3777E-03 -0.2887E-04
 -13.850 -0.9842E-03 -0.7808E-04
 -13.800 -0.2388E-02 -0.1975E-03
 -13.750 -0.5386E-02 -0.4668E-03
 -13.700 -0.1128E-01 -0.1031E-02
 -13.650 -0.2188E-01 -0.2125E-02
 -13.600 -0.3913E-01 -0.4081E-02
 -13.550 -0.6412E-01 -0.7287E-02
 -13.500 -0.9517E-01 -0.1205E-01
 -13.450 -0.1251E+00 -0.1830E-01
 -13.400 -0.1386E+00 -0.2523E-01
 -13.350 -0.1101E+00 -0.3073E-01
 -13.300 -0.5817E-02 -0.3103E-01
 -13.250  0.2108E+00 -0.2049E-01
 -13.200  0.5684E+00  0.7935E-02
 -13.150  0.1075E+01  0.6170E-01
 -13.100  0.1707E+01  0.1471E+00
 -13.050  0.2406E+01  0.2674E+00
 -13.000  0.3086E+01  0.4217E+00
 -12.950  0.3654E+01  0.6044E+00
 -12.900  0.4034E+01  0.8061E+00
 -12.850  0.4193E+01  0.1016E+01
 -12.800  0.4150E+01  0.1223E+01
 -12.750  0.3968E+01  0.1422E+01
 -12.700  0.3738E+01  0.1609E+01
 -12.650  0.3547E+01  0.1786E+01
 -12.600  0.3458E+01  0.1959E+01
 -12.550  0.3499E+01  0.2134E+01
 -12.500  0.3659E+01  0.2317E+01
 -12.450  0.3907E+01  0.2512E+01
 -12.400  0.4199E+01  0.2722E+01
 -12.350  0.4498E+01  0.2947E+01
 -12.300  0.4784E+01  0.3186E+01
 -12.250  0.5057E+01  0.3439E+01
 -12.200  0.5324E+01  0.3705E+01
 -12.150  0.5589E+01  0.3985E+01
 -12.100  0.5829E+01  0.4276E+01
 -12.050  0.5987E+01  0.4575E+01
 -12.000  0.5982E+01  0.4874E+01
 -11.950  0.5736E+01  0.5161E+01
 -11.900  0.5205E+01  0.5421E+01
 -11.850  0.4409E+01  0.5642E+01
 -11.800  0.3434E+01  0.5814E+01
 -11.750  0.2409E+01  0.5934E+01
 -11.700  0.1470E+01  0.6008E+01
 -11.650  0.7181E+00  0.6044E+01
 -11.600  0.1981E+00  0.6053E+01
 -11.550 -0.9974E-01  0.6048E+01
 -11.500 -0.2237E+00  0.6037E+01
 -11.450 -0.2363E+00  0.6025E+01
 -11.400 -0.1939E+00  0.6016E+01
 -11.350 -0.1364E+00  0.6009E+01
 -11.300 -0.8528E-01  0.6005E+01
 -11.250 -0.4825E-01  0.6002E+01
 -11.200 -0.2494E-01  0.6001E+01
 -11.150 -0.1185E-01  0.6000E+01
 -11.100 -0.5200E-02  0.6000E+01
 -11.050 -0.2111E-02  0.6000E+01
 -11.000 -0.7948E-03  0.6000E+01
 -10.950 -0.2779E-03  0.6000E+01
 -10.900 -0.9032E-04  0.6000E+01
 -10.850 -0.2731E-04  0.6000E+01
 -10.800 -0.7690E-05  0.6000E+01
 -10.750 -0.2017E-05  0.6000E+01
 -10.700 -0.4930E-06  0.6000E+01
 -10.650 -0.1123E-06  0.6000E+01
 -10.600 -0.2387E-07  0.6000E+01
 -10.550 -0.4732E-08  0.6000E+01
 -10.500 -0.8750E-09  0.6000E+01
 -10.450 -0.1510E-09  0.6000E+01
 -10.400 -0.2432E-10  0.6000E+01
 -10.350 -0.3655E-11  0.6000E+01
 -10.300 -0.5129E-12  0.6000E+01
 -10.250 -0.6719E-13  0.6000E+01
 -10.200 -0.8219E-14  0.6000E+01
 -10.150 -0.9388E-15  0.6000E+01
 -10.100 -0.1001E-15  0.6000E+01
 -10.050 -0.9974E-17  0.6000E+01
 -10.000 -0.9279E-18  0.6000E+01
  -9.950 -0.8063E-19  0.6000E+01
  -9.900 -0.6544E-20  0.6000E+01
  -9.850 -0.4961E-21  0.6000E+01
  -9.800 -0.3513E-22  0.6000E+01
  -9.750 -0.2324E-23  0.6000E+01
  -9.700 -0.1436E-24  0.6000E+01
  -9.650 -0.8294E-26  0.6000E+01
  -9.600 -0.4474E-27  0.6000E+01
  -9.550 -0.2255E-28  0.6000E+01
  -9.500 -0.1062E-29  0.6000E+01
  -9.450 -0.4671E-31  0.6000E+01
  -9.400 -0.1920E-32  0.6000E+01
  -9.350 -0.7376E-34  0.6000E+01
  -9.300 -0.2647E-35  0.6000E+01
  -9.250 -0.8877E-37  0.6000E+01
  -9.200 -0.2782E-38  0.6000E+01
  -9.150 -0.8146E-40  0.6000E+01
  -9.100 -0.2229E-41  0.6000E+01
  -9.050 -0.5699E-43  0.6000E+01
  -9.000 -0.1362E-44  0.6000E+01
  -8.950 -0.3041E-46  0.6000E+01
  -8.900 -0.6345E-48  0.6000E+01
  -8.850 -0.1237E-49  0.6000E+01
  -8.800 -0.2255E-51  0.6000E+01
  -8.750 -0.3840E-53  0.6000E+01
  -8.700 -0.6111E-55  0.6000E+01
  -8.650 -0.9090E-57  0.6000E+01
  -8.600 -0.1264E-58  0.6000E+01
  -8.550 -0.1641E-60  0.6000E+01
  -8.500 -0.1993E-62  0.6000E+01
  -8.450 -0.2261E-64  0.6000E+01
  -8.400 -0.2398E-66  0.6000E+01
  -8.350 -0.2376E-68  0.6000E+01
  -8.300 -0.2201E-70  0.6000E+01
  -8.250 -0.1905E-72  0.6000E+01
  -8.200 -0.1541E-74  0.6000E+01
  -8.150 -0.1167E-76  0.6000E+01
  -8.100 -0.9502E-79  0.6000E+01
  -8.050 -0.1319E-79  0.6000E+01
  -8.000 -0.1263E-79  0.6000E+01
  -7.950 -0.1261E-79  0.6000E+01
  -7.900 -0.1259E-79  0.6000E+01
  -7.850 -0.1258E-79  0.6000E+01
  -7.800 -0.1256E-79  0.6000E+01
  -7.750 -0.1254E-79  0.6000E+01
  -7.700 -0.1252E-79  0.6000E+01
  -7.650 -0.1251E-79  0.6000E+01
  -7.600 -0.1249E-79  0.6000E+01
  -7.550 -0.1247E-79  0.6000E+01
  -7.500 -0.1245E-79  0.6000E+01
  -7.450 -0.1244E-79  0.6000E+01
  -7.400 -0.1242E-79  0.6000E+01
  -7.350 -0.1240E-79  0.6000E+01
  -7.300 -0.1239E-79  0.6000E+01
  -7.250 -0.1237E-79  0.6000E+01
  -7.200 -0.1235E-79  0.6000E+01
  -7.150 -0.1234E-79  0.6000E+01
  -7.100 -0.1232E-79  0.6000E+01
  -7.050 -0.1230E-79  0.6000E+01
  -7.000 -0.1228E-79  0.6000E+01
  -6.950 -0.1227E-79  0.6000E+01
  -6.900 -0.1225E-79  0.6000E+01
  -6.850 -0.1223E-79  0.6000E+01
  -6.800 -0.1222E-79  0.6000E+01
  -6.750 -0.1220E-79  0.6000E+01
  -6.700 -0.1218E-79  0.6000E+01
  -6.650 -0.1217E-79  0.6000E+01
  -6.600 -0.1215E-79  0.6000E+01
  -6.550 -0.1213E-79  0.6000E+01
  -6.500 -0.1211E-79  0.6000E+01
  -6.450 -0.1210E-79  0.6000E+01
  -6.400 -0.1208E-79  0.6000E+01
  -6.350 -0.1206E-79  0.6000E+01
  -6.300 -0.1205E-79  0.6000E+01
  -6.250 -0.1203E-79  0.6000E+01
  -6.200 -0.1201E-79  0.6000E+01
  -6.150 -0.1200E-79  0.6000E+01
  -6.100 -0.1198E-79  0.6000E+01
  -6.050 -0.1196E-79  0.6000E+01
  -6.000 -0.1195E-79  0.6000E+01
  -5.950 -0.1193E-79  0.6000E+01
  -5.900 -0.1191E-79  0.6000E+01
  -5.850 -0.1190E-79  0.6000E+01
  -5.800 -0.1188E-79  0.6000E+01
  -5.750 -0.1186E-79  0.6000E+01
  -5.700 -0.1185E-79  0.6000E+01
  -5.650 -0.1183E-79  0.6000E+01
  -5.600 -0.1181E-79  0.6000E+01
  -5.550 -0.1180E-79  0.6000E+01
  -5.500 -0.1178E-79  0.6000E+01
  -5.450 -0.1176E-79  0.6000E+01
  -5.400 -0.1175E-79  0.6000E+01
  -5.350 -0.1173E-79  0.6000E+01
  -5.300 -0.1172E-79  0.6000E+01
  -5.250 -0.1170E-79  0.6000E+01
  -5.200 -0.1168E-79  0.6000E+01
  -5.150 -0.1167E-79  0.6000E+01
  -5.100 -0.1165E-79  0.6000E+01
  -5.050 -0.1163E-79  0.6000E+01
  -5.000 -0.1162E-79  0.6000E+01
  -4.950 -0.1160E-79  0.6000E+01
  -4.900 -0.1158E-79  0.6000E+01
  -4.850 -0.1157E-79  0.6000E+01
  -4.800 -0.1155E-79  0.6000E+01
  -4.750 -0.1154E-79  0.6000E+01
  -4.700 -0.1152E-79  0.6000E+01
  -4.650 -0.1150E-79  0.6000E+01
  -4.600 -0.1149E-79  0.6000E+01
  -4.550 -0.1147E-79  0.6000E+01
  -4.500 -0.1145E-79  0.6000E+01
  -4.450 -0.1144E-79  0.6000E+01
  -4.400 -0.1142E-79  0.6000E+01
  -4.350 -0.1141E-79  0.6000E+01
  -4.300 -0.1139E-79  0.6000E+01
  -4.250 -0.1137E-79  0.6000E+01
  -4.200 -0.1136E-79  0.6000E+01
  -4.150 -0.1134E-79  0.6000E+01
  -4.100 -0.1132E-79  0.6000E+01
  -4.050 -0.1131E-79  0.6000E+01
  -4.000 -0.1129E-79  0.6000E+01
  -3.950 -0.1128E-79  0.6000E+01
  -3.900 -0.1126E-79  0.6000E+01
  -3.850 -0.1124E-79  0.6000E+01
  -3.800 -0.1123E-79  0.6000E+01
  -3.750 -0.1121E-79  0.6000E+01
  -3.700 -0.1120E-79  0.6000E+01
  -3.650 -0.1118E-79  0.6000E+01
  -3.600 -0.1116E-79  0.6000E+01
  -3.550 -0.1115E-79  0.6000E+01
  -3.500 -0.1113E-79  0.6000E+01
  -3.450 -0.1112E-79  0.6000E+01
  -3.400 -0.1110E-79  0.6000E+01
  -3.350 -0.1109E-79  0.6000E+01
  -3.300 -0.1107E-79  0.6000E+01
  -3.250 -0.1105E-79  0.6000E+01
  -3.200 -0.1104E-79  0.6000E+01
  -3.150 -0.1102E-79  0.6000E+01
  -3.100 -0.1101E-79  0.6000E+01
  -3.050 -0.1099E-79  0.6000E+01
  -3.000 -0.1097E-79  0.6000E+01
  -2.950 -0.1096E-79  0.6000E+01
  -2.900 -0.1094E-79  0.6000E+01
  -2.850 -0.1093E-79  0.6000E+01
  -2.800 -0.1091E-79  0.6000E+01
  -2.750 -0.1090E-79  0.6000E+01
  -2.700 -0.1088E-79  0.6000E+01
  -2.650 -0.1086E-79  0.6000E+01
  -2.600 -0.1085E-79  0.6000E+01
  -2.550 -0.1083E-79  0.6000E+01
  -2.500 -0.1082E-79  0.6000E+01
  -2.450 -0.1080E-79  0.6000E+01
  -2.400 -0.1079E-79  0.6000E+01
  -2.350 -0.1077E-79  0.6000E+01
  -2.300 -0.1076E-79  0.6000E+01
  -2.250 -0.1074E-79  0.6000E+01
  -2.200 -0.1072E-79  0.6000E+01
  -2.150 -0.1071E-79  0.6000E+01
  -2.100 -0.1069E-79  0.6000E+01
  -2.050 -0.1068E-79  0.6000E+01
  -2.000 -0.1066E-79  0.6000E+01
  -1.950 -0.1065E-79  0.6000E+01
  -1.900 -0.1063E-79  0.6000E+01
  -1.850 -0.1062E-79  0.6000E+01
  -1.800 -0.1060E-79  0.6000E+01
  -1.750 -0.1059E-79  0.6000E+01
  -1.700 -0.1057E-79  0.6000E+01
  -1.650 -0.1056E-79  0.6000E+01
  -1.600 -0.1054E-79  0.6000E+01
  -1.550 -0.1052E-79  0.6000E+01
  -1.500 -0.1051E-79  0.6000E+01
  -1.450 -0.1049E-79  0.6000E+01
  -1.400 -0.1048E-79  0.6000E+01
  -1.350 -0.1046E-79  0.6000E+01
  -1.300 -0.1045E-79  0.6000E+01
  -1.250 -0.1043E-79  0.6000E+01
  -1.200 -0.1042E-79  0.6000E+01
  -1.150 -0.1040E-79  0.6000E+01
  -1.100 -0.1039E-79  0.6000E+01
  -1.050 -0.1037E-79  0.6000E+01
  -1.000 -0.1036E-79  0.6000E+01
  -0.950 -0.1034E-79  0.6000E+01
  -0.900 -0.1033E-79  0.6000E+01
  -0.850 -0.1031E-79  0.6000E+01
  -0.800 -0.1030E-79  0.6000E+01
  -0.750 -0.1028E-79  0.6000E+01
  -0.700 -0.1027E-79  0.6000E+01
  -0.650 -0.1025E-79  0.6000E+01
  -0.600 -0.1024E-79  0.6000E+01
  -0.550 -0.1022E-79  0.6000E+01
  -0.500 -0.1021E-79  0.6000E+01
  -0.450 -0.1019E-79  0.6000E+01
  -0.400 -0.1018E-79  0.6000E+01
  -0.350 -0.1016E-79  0.6000E+01
  -0.300 -0.1015E-79  0.6000E+01
  -0.250 -0.1013E-79  0.6000E+01
  -0.200 -0.1012E-79  0.6000E+01
  -0.150 -0.1010E-79  0.6000E+01
  -0.100 -0.1009E-79  0.6000E+01
  -0.050 -0.1007E-79  0.6000E+01
   0.000 -0.1006E-79  0.6000E+01
   0.050 -0.1004E-79  0.6000E+01
   0.100 -0.1003E-79  0.6000E+01
   0.150 -0.1001E-79  0.6000E+01
   0.200 -0.9998E-80  0.6000E+01
   0.250 -0.9984E-80  0.6000E+01
   0.300 -0.9969E-80  0.6000E+01
   0.350 -0.9954E-80  0.6000E+01
   0.400 -0.9940E-80  0.6000E+01
   0.450 -0.9925E-80  0.6000E+01
   0.500 -0.9910E-80  0.6000E+01
   0.550 -0.9896E-80  0.6000E+01
   0.600 -0.9881E-80  0.6000E+01
   0.650 -0.9866E-80  0.6000E+01
   0.700 -0.9852E-80  0.6000E+01
   0.750 -0.9837E-80  0.6000E+01
   0.800 -0.9823E-80  0.6000E+01
   0.850 -0.9808E-80  0.6000E+01
   0.900 -0.9793E-80  0.6000E+01
   0.950 -0.9779E-80  0.6000E+01
   1.000 -0.9764E-80  0.6000E+01
   1.050 -0.9750E-80  0.6000E+01
   1.100 -0.9735E-80  0.6000E+01
   1.150 -0.9721E-80  0.6000E+01
   1.200 -0.9706E-80  0.6000E+01
   1.250 -0.9692E-80  0.6000E+01
   1.300 -0.9678E-80  0.6000E+01
   1.350 -0.9663E-80  0.6000E+01
   1.400 -0.9649E-80  0.6000E+01
   1.450 -0.9634E-80  0.6000E+01
   1.500 -0.9620E-80  0.6000E+01
   1.550 -0.9606E-80  0.6000E+01
   1.600 -0.9591E-80  0.6000E+01
   1.650 -0.9577E-80  0.6000E+01
   1.700 -0.9563E-80  0.6000E+01
   1.750 -0.9548E-80  0.6000E+01
   1.800 -0.9534E-80  0.6000E+01
   1.850 -0.9520E-80  0.6000E+01
   1.900 -0.9506E-80  0.6000E+01
   1.950 -0.9492E-80  0.6000E+01
   2.000 -0.9477E-80  0.6000E+01
   2.050 -0.9463E-80  0.6000E+01
   2.100 -0.9449E-80  0.6000E+01
   2.150 -0.9435E-80  0.6000E+01
   2.200 -0.9421E-80  0.6000E+01
   2.250 -0.9407E-80  0.6000E+01
   2.300 -0.9392E-80  0.6000E+01
   2.350 -0.9378E-80  0.6000E+01
   2.400 -0.9364E-80  0.6000E+01
   2.450 -0.9350E-80  0.6000E+01
   2.500 -0.9336E-80  0.6000E+01
   2.550 -0.9322E-80  0.6000E+01
   2.600 -0.9308E-80  0.6000E+01
   2.650 -0.9294E-80  0.6000E+01
   2.700 -0.9280E-80  0.6000E+01
   2.750 -0.9266E-80  0.6000E+01
   2.800 -0.9252E-80  0.6000E+01
   2.850 -0.9238E-80  0.6000E+01
   2.900 -0.9224E-80  0.6000E+01
   2.950 -0.9210E-80  0.6000E+01
   3.000 -0.9196E-80  0.6000E+01
   3.050 -0.9183E-80  0.6000E+01
   3.100 -0.9169E-80  0.6000E+01
   3.150 -0.9155E-80  0.6000E+01
   3.200 -0.9141E-80  0.6000E+01
   3.250 -0.9127E-80  0.6000E+01
   3.300 -0.9113E-80  0.6000E+01
   3.350 -0.9100E-80  0.6000E+01
   3.400 -0.9086E-80  0.6000E+01
   3.450 -0.9072E-80  0.6000E+01
   3.500 -0.9058E-80  0.6000E+01
   3.550 -0.9045E-80  0.6000E+01
   3.600 -0.9031E-80  0.6000E+01
   3.650 -0.9017E-80  0.6000E+01
   3.700 -0.9004E-80  0.6000E+01
   3.750 -0.8990E-80  0.6000E+01
   3.800 -0.8976E-80  0.6000E+01
   3.850 -0.8963E-80  0.6000E+01
   3.900 -0.8949E-80  0.6000E+01
   3.950 -0.8935E-80  0.6000E+01
   4.000 -0.8922E-80  0.6000E+01
   4.050 -0.8908E-80  0.6000E+01
   4.100 -0.8895E-80  0.6000E+01
   4.150 -0.8881E-80  0.6000E+01
   4.200 -0.8868E-80  0.6000E+01
   4.250 -0.8854E-80  0.6000E+01
   4.300 -0.8841E-80  0.6000E+01
   4.350 -0.8827E-80  0.6000E+01
   4.400 -0.8814E-80  0.6000E+01
   4.450 -0.8800E-80  0.6000E+01
   4.500 -0.8787E-80  0.6000E+01
   4.550 -0.8773E-80  0.6000E+01
   4.600 -0.8760E-80  0.6000E+01
   4.650 -0.8747E-80  0.6000E+01
   4.700 -0.8733E-80  0.6000E+01
   4.750 -0.8720E-80  0.6000E+01
   4.800 -0.8707E-80  0.6000E+01
   4.850 -0.8693E-80  0.6000E+01
   4.900 -0.8680E-80  0.6000E+01
   4.950 -0.8667E-80  0.6000E+01
   5.000 -0.8653E-80  0.6000E+01
   5.050 -0.8640E-80  0.6000E+01
   5.100 -0.8627E-80  0.6000E+01
   5.150 -0.8614E-80  0.6000E+01
   5.200 -0.8600E-80  0.6000E+01
   5.250 -0.8587E-80  0.6000E+01
   5.300 -0.8574E-80  0.6000E+01
   5.350 -0.8561E-80  0.6000E+01
   5.400 -0.8548E-80  0.6000E+01
   5.450 -0.8535E-80  0.6000E+01
   5.500 -0.8521E-80  0.6000E+01
   5.550 -0.8508E-80  0.6000E+01
   5.600 -0.8495E-80  0.6000E+01
   5.650 -0.8482E-80  0.6000E+01
   5.700 -0.8469E-80  0.6000E+01
   5.750 -0.8456E-80  0.6000E+01
   5.800 -0.8443E-80  0.6000E+01
   5.850 -0.8430E-80  0.6000E+01
   5.900 -0.8417E-80  0.6000E+01
   5.950 -0.8404E-80  0.6000E+01
   6.000 -0.8391E-80  0.6000E+01
   6.050 -0.8378E-80  0.6000E+01
   6.100 -0.8365E-80  0.6000E+01
   6.150 -0.8352E-80  0.6000E+01
   6.200 -0.8339E-80  0.6000E+01
   6.250 -0.8326E-80  0.6000E+01
   6.300 -0.8314E-80  0.6000E+01
   6.350 -0.8301E-80  0.6000E+01
   6.400 -0.8288E-80  0.6000E+01
   6.450 -0.8275E-80  0.6000E+01
   6.500 -0.8262E-80  0.6000E+01
   6.550 -0.8249E-80  0.6000E+01
   6.600 -0.8237E-80  0.6000E+01
   6.650 -0.8224E-80  0.6000E+01
   6.700 -0.8211E-80  0.6000E+01
   6.750 -0.8198E-80  0.6000E+01
   6.800 -0.8186E-80  0.6000E+01
   6.850 -0.8173E-80  0.6000E+01
   6.900 -0.8160E-80  0.6000E+01
   6.950 -0.8148E-80  0.6000E+01
   7.000 -0.8135E-80  0.6000E+01
   7.050 -0.8122E-80  0.6000E+01
   7.100 -0.8110E-80  0.6000E+01
   7.150 -0.8097E-80  0.6000E+01
   7.200 -0.8085E-80  0.6000E+01
   7.250 -0.8072E-80  0.6000E+01
   7.300 -0.8059E-80  0.6000E+01
   7.350 -0.8047E-80  0.6000E+01
   7.400 -0.8034E-80  0.6000E+01
   7.450 -0.8022E-80  0.6000E+01
   7.500 -0.8009E-80  0.6000E+01
   7.550 -0.7997E-80  0.6000E+01
   7.600 -0.7984E-80  0.6000E+01
   7.650 -0.7972E-80  0.6000E+01
   7.700 -0.7959E-80  0.6000E+01
   7.750 -0.7947E-80  0.6000E+01
   7.800 -0.7935E-80  0.6000E+01
   7.850 -0.7922E-80  0.6000E+01
   7.900 -0.7910E-80  0.6000E+01
   7.950 -0.7897E-80  0.6000E+01
   8.000 -0.7885E-80  0.6000E+01
   8.050 -0.7873E-80  0.6000E+01
   8.100 -0.7860E-80  0.6000E+01
   8.150 -0.7848E-80  0.6000E+01
   8.200 -0.7837E-80  0.6000E+01
   8.250 -0.7974E-80  0.6000E+01
   8.300 -0.2933E-79  0.6000E+01
   8.350 -0.2877E-77  0.6000E+01
   8.400 -0.3574E-75  0.6000E+01
   8.450 -0.4160E-73  0.6000E+01
   8.500 -0.4523E-71  0.6000E+01
   8.550 -0.4596E-69  0.6000E+01
   8.600 -0.4362E-67  0.6000E+01
   8.650 -0.3869E-65  0.6000E+01
   8.700 -0.3205E-63  0.6000E+01
   8.750 -0.2481E-61  0.6000E+01
   8.800 -0.1794E-59  0.6000E+01
   8.850 -0.1212E-57  0.6000E+01
   8.900 -0.7651E-56  0.6000E+01
   8.950 -0.4511E-54  0.6000E+01
   9.000 -0.2485E-52  0.6000E+01
   9.050 -0.1278E-50  0.6000E+01
   9.100 -0.6145E-49  0.6000E+01
   9.150 -0.2759E-47  0.6000E+01
   9.200 -0.1157E-45  0.6000E+01
   9.250 -0.4532E-44  0.6000E+01
   9.300 -0.1658E-42  0.6000E+01
   9.350 -0.5667E-41  0.6000E+01
   9.400 -0.1809E-39  0.6000E+01
   9.450 -0.5393E-38  0.6000E+01
   9.500 -0.1502E-36  0.6000E+01
   9.550 -0.3904E-35  0.6000E+01
   9.600 -0.9481E-34  0.6000E+01
   9.650 -0.2150E-32  0.6000E+01
   9.700 -0.4552E-31  0.6000E+01
   9.750 -0.9000E-30  0.6000E+01
   9.800 -0.1662E-28  0.6000E+01
   9.850 -0.2864E-27  0.6000E+01
   9.900 -0.4609E-26  0.6000E+01
   9.950 -0.6925E-25  0.6000E+01
  10.000 -0.9712E-24  0.6000E+01
  10.050 -0.1272E-22  0.6000E+01
  10.100 -0.1554E-21  0.6000E+01
  10.150 -0.1773E-20  0.6000E+01
  10.200 -0.1887E-19  0.6000E+01
  10.250 -0.1875E-18  0.6000E+01
  10.300 -0.1738E-17  0.6000E+01
  10.350 -0.1504E-16  0.6000E+01
  10.400 -0.1214E-15  0.6000E+01
  10.450 -0.9146E-15  0.6000E+01
  10.500 -0.6428E-14  0.6000E+01
  10.550 -0.4215E-13  0.6000E+01
  10.600 -0.2579E-12  0.6000E+01
  10.650 -0.1472E-11  0.6000E+01
  10.700 -0.7841E-11  0.6000E+01
  10.750 -0.3897E-10  0.6000E+01
  10.800 -0.1808E-09  0.6000E+01
  10.850 -0.7828E-09  0.6000E+01
  10.900 -0.3165E-08  0.6000E+01
  10.950 -0.1195E-07  0.6000E+01
  11.000 -0.4216E-07  0.6000E+01
  11.050 -0.1390E-06  0.6000E+01
  11.100 -0.4288E-06  0.6000E+01
  11.150 -0.1237E-05  0.6000E+01
  11.200 -0.3342E-05  0.6000E+01
  11.250 -0.8448E-05  0.6000E+01
  11.300 -0.1999E-04  0.6000E+01
  11.350 -0.4420E-04  0.6000E+01
  11.400 -0.9125E-04  0.6000E+01
  11.450 -0.1753E-03  0.6000E+01
  11.500 -0.3117E-03  0.6000E+01
  11.550 -0.5091E-03  0.6000E+01
  11.600 -0.7530E-03  0.6000E+01
  11.650 -0.9838E-03  0.6000E+01
  11.700 -0.1073E-02  0.6000E+01
  11.750 -0.8181E-03  0.6000E+01
  11.800  0.3670E-04  0.6000E+01
  11.850  0.1729E-02  0.6000E+01
  11.900  0.4387E-02  0.6000E+01
  11.950  0.7952E-02  0.6000E+01
  12.000  0.1218E-01  0.6001E+01
  12.050  0.1672E-01  0.6002E+01
  12.100  0.2131E-01  0.6003E+01
  12.150  0.2588E-01  0.6004E+01
  12.200  0.3055E-01  0.6006E+01
  12.250  0.3550E-01  0.6008E+01
  12.300  0.4071E-01  0.6010E+01
  12.350  0.4589E-01  0.6012E+01
  12.400  0.5048E-01  0.6014E+01
  12.450  0.5398E-01  0.6017E+01
  12.500  0.5617E-01  0.6020E+01
  12.550  0.5730E-01  0.6023E+01
  12.600  0.5800E-01  0.6026E+01
  12.650  0.5910E-01  0.6029E+01
  12.700  0.6140E-01  0.6032E+01
  12.750  0.6536E-01  0.6035E+01
  12.800  0.7098E-01  0.6039E+01
  12.850  0.7766E-01  0.6042E+01
  12.900  0.8430E-01  0.6047E+01
  12.950  0.8973E-01  0.6051E+01
  13.000  0.9316E-01  0.6056E+01
  13.050  0.9458E-01  0.6061E+01
  13.100  0.9472E-01  0.6065E+01
  13.150  0.9463E-01  0.6070E+01
  13.200  0.9518E-01  0.6075E+01
  13.250  0.9675E-01  0.6080E+01
  13.300  0.9938E-01  0.6085E+01
  13.350  0.1032E+00  0.6090E+01
  13.400  0.1086E+00  0.6095E+01
  13.450  0.1160E+00  0.6101E+01
  13.500  0.1255E+00  0.6107E+01
  13.550  0.1362E+00  0.6114E+01
  13.600  0.1463E+00  0.6121E+01
  13.650  0.1536E+00  0.6129E+01
  13.700  0.1564E+00  0.6137E+01
  13.750  0.1540E+00  0.6145E+01
  13.800  0.1478E+00  0.6152E+01
  13.850  0.1407E+00  0.6159E+01
  13.900  0.1374E+00  0.6166E+01
  13.950  0.1441E+00  0.6173E+01
  14.000  0.1674E+00  0.6181E+01
  14.050  0.2132E+00  0.6192E+01
  14.100  0.2841E+00  0.6206E+01
  14.150  0.3778E+00  0.6225E+01
  14.200  0.4872E+00  0.6250E+01
  14.250  0.6012E+00  0.6280E+01
  14.300  0.7083E+00  0.6315E+01
  14.350  0.7995E+00  0.6355E+01
  14.400  0.8701E+00  0.6398E+01
  14.450  0.9199E+00  0.6444E+01
  14.500  0.9523E+00  0.6492E+01
  14.550  0.9725E+00  0.6541E+01
  14.600  0.9867E+00  0.6590E+01
  14.650  0.1001E+01  0.6640E+01
  14.700  0.1023E+01  0.6691E+01
  14.750  0.1056E+01  0.6744E+01
  14.800  0.1101E+01  0.6799E+01
  14.850  0.1156E+01  0.6857E+01
  14.900  0.1212E+01  0.6917E+01
  14.950  0.1258E+01  0.6980E+01
  15.000  0.1288E+01  0.7045E+01
  15.050  0.1301E+01  0.7110E+01
  15.100  0.1303E+01  0.7175E+01
  15.150  0.1306E+01  0.7240E+01
  15.200  0.1324E+01  0.7307E+01
  15.250  0.1361E+01  0.7375E+01
  15.300  0.1413E+01  0.7445E+01
  15.350  0.1463E+01  0.7518E+01
  15.400  0.1492E+01  0.7593E+01
  15.450  0.1484E+01  0.7667E+01
  15.500  0.1431E+01  0.7739E+01
  15.550  0.1341E+01  0.7806E+01
  15.600  0.1227E+01  0.7867E+01
  15.650  0.1106E+01  0.7922E+01
  15.700  0.9913E+00  0.7972E+01
  15.750  0.8883E+00  0.8016E+01
  15.800  0.7958E+00  0.8056E+01
  15.850  0.7100E+00  0.8092E+01
  15.900  0.6302E+00  0.8123E+01
  15.950  0.5634E+00  0.8151E+01
  16.000  0.5253E+00  0.8178E+01
  16.050  0.5367E+00  0.8204E+01
  16.100  0.6173E+00  0.8235E+01
  16.150  0.7770E+00  0.8274E+01
  16.200  0.1010E+01  0.8325E+01
  16.250  0.1291E+01  0.8389E+01
  16.300  0.1585E+01  0.8468E+01
  16.350  0.1849E+01  0.8561E+01
  16.400  0.2050E+01  0.8663E+01
  16.450  0.2167E+01  0.8772E+01
  16.500  0.2200E+01  0.8882E+01
  16.550  0.2159E+01  0.8990E+01
  16.600  0.2064E+01  0.9093E+01
  16.650  0.1932E+01  0.9190E+01
  16.700  0.1781E+01  0.9279E+01
  16.750  0.1626E+01  0.9360E+01
  16.800  0.1480E+01  0.9434E+01
  16.850  0.1355E+01  0.9502E+01
  16.900  0.1257E+01  0.9564E+01
  16.950  0.1187E+01  0.9624E+01
  17.000  0.1140E+01  0.9681E+01
  17.050  0.1107E+01  0.9736E+01
  17.100  0.1083E+01  0.9790E+01
  17.150  0.1071E+01  0.9844E+01
  17.200  0.1081E+01  0.9898E+01
  17.250  0.1127E+01  0.9954E+01
  17.300  0.1221E+01  0.1002E+02
  17.350  0.1361E+01  0.1008E+02
  17.400  0.1536E+01  0.1016E+02
  17.450  0.1720E+01  0.1025E+02
  17.500  0.1884E+01  0.1034E+02
  17.550  0.2000E+01  0.1044E+02
  17.600  0.2047E+01  0.1054E+02
  17.650  0.2024E+01  0.1064E+02
  17.700  0.1942E+01  0.1074E+02
  17.750  0.1823E+01  0.1083E+02
  17.800  0.1692E+01  0.1092E+02
  17.850  0.1569E+01  0.1100E+02
  17.900  0.1464E+01  0.1107E+02
  17.950  0.1377E+01  0.1114E+02
  18.000  0.1303E+01  0.1120E+02
  18.050  0.1233E+01  0.1126E+02
  18.100  0.1161E+01  0.1132E+02
  18.150  0.1078E+01  0.1138E+02
  18.200  0.9795E+00  0.1143E+02
  18.250  0.8630E+00  0.1147E+02
  18.300  0.7302E+00  0.1150E+02
  18.350  0.5895E+00  0.1153E+02
  18.400  0.4561E+00  0.1156E+02
  18.450  0.3488E+00  0.1157E+02
  18.500  0.2853E+00  0.1159E+02
  18.550  0.2764E+00  0.1160E+02
  18.600  0.3213E+00  0.1162E+02
  18.650  0.4068E+00  0.1164E+02
  18.700  0.5104E+00  0.1166E+02
  18.750  0.6069E+00  0.1169E+02
  18.800  0.6748E+00  0.1173E+02
  18.850  0.7024E+00  0.1176E+02
  18.900  0.6896E+00  0.1180E+02
  18.950  0.6455E+00  0.1183E+02
  19.000  0.5849E+00  0.1186E+02
  19.050  0.5229E+00  0.1189E+02
  19.100  0.4712E+00  0.1191E+02
  19.150  0.4361E+00  0.1193E+02
  19.200  0.4186E+00  0.1195E+02
  19.250  0.4165E+00  0.1197E+02
  19.300  0.4263E+00  0.1199E+02
  19.350  0.4463E+00  0.1202E+02
  19.400  0.4766E+00  0.1204E+02
  19.450  0.5180E+00  0.1207E+02
  19.500  0.5696E+00  0.1209E+02
  19.550  0.6275E+00  0.1213E+02
  19.600  0.6848E+00  0.1216E+02
  19.650  0.7349E+00  0.1220E+02
  19.700  0.7738E+00  0.1224E+02
  19.750  0.8028E+00  0.1228E+02
  19.800  0.8274E+00  0.1232E+02
  19.850  0.8551E+00  0.1236E+02
  19.900  0.8916E+00  0.1240E+02
  19.950  0.9388E+00  0.1245E+02
  20.000  0.9943E+00  0.1250E+02
  20.050  0.1052E+01  0.1255E+02
  20.100  0.1106E+01  0.1261E+02
  20.150  0.1151E+01  0.1267E+02
  20.200  0.1183E+01  0.1273E+02
  20.250  0.1205E+01  0.1279E+02
  20.300  0.1217E+01  0.1285E+02
  20.350  0.1222E+01  0.1291E+02
  20.400  0.1218E+01  0.1297E+02
  20.450  0.1201E+01  0.1303E+02
  20.500  0.1169E+01  0.1309E+02
  20.550  0.1121E+01  0.1314E+02
  20.600  0.1066E+01  0.1320E+02
  20.650  0.1017E+01  0.1325E+02
  20.700  0.9881E+00  0.1330E+02
  20.750  0.9898E+00  0.1335E+02
  20.800  0.1025E+01  0.1340E+02
  20.850  0.1090E+01  0.1345E+02
  20.900  0.1176E+01  0.1351E+02
  20.950  0.1275E+01  0.1357E+02
  21.000  0.1377E+01  0.1364E+02
  21.050  0.1475E+01  0.1372E+02
  21.100  0.1562E+01  0.1380E+02
  21.150  0.1628E+01  0.1388E+02
  21.200  0.1666E+01  0.1396E+02
  21.250  0.1672E+01  0.1404E+02
  21.300  0.1648E+01  0.1413E+02
  21.350  0.1601E+01  0.1421E+02
  21.400  0.1545E+01  0.1428E+02
  21.450  0.1496E+01  0.1436E+02
  21.500  0.1475E+01  0.1443E+02
  21.550  0.1499E+01  0.1451E+02
  21.600  0.1581E+01  0.1459E+02
  21.650  0.1724E+01  0.1467E+02
  21.700  0.1915E+01  0.1477E+02
  21.750  0.2124E+01  0.1487E+02
  21.800  0.2309E+01  0.1499E+02
  21.850  0.2425E+01  0.1511E+02
  21.900  0.2435E+01  0.1523E+02
  21.950  0.2326E+01  0.1535E+02
  22.000  0.2110E+01  0.1545E+02
  22.050  0.1826E+01  0.1555E+02
  22.100  0.1524E+01  0.1562E+02
  22.150  0.1254E+01  0.1568E+02
  22.200  0.1052E+01  0.1574E+02
  22.250  0.9364E+00  0.1578E+02
  22.300  0.9029E+00  0.1583E+02
  22.350  0.9328E+00  0.1588E+02
  22.400  0.9989E+00  0.1593E+02
  22.450  0.1074E+01  0.1598E+02
  22.500  0.1133E+01  0.1604E+02
  22.550  0.1163E+01  0.1609E+02
  22.600  0.1154E+01  0.1615E+02
  22.650  0.1105E+01  0.1621E+02
  22.700  0.1019E+01  0.1626E+02
  22.750  0.9042E+00  0.1630E+02
  22.800  0.7703E+00  0.1634E+02
  22.850  0.6302E+00  0.1637E+02
  22.900  0.4985E+00  0.1640E+02
  22.950  0.3899E+00  0.1642E+02
  23.000  0.3168E+00  0.1643E+02
  23.050  0.2861E+00  0.1645E+02
  23.100  0.2966E+00  0.1646E+02
  23.150  0.3389E+00  0.1648E+02
  23.200  0.3973E+00  0.1650E+02
  23.250  0.4550E+00  0.1652E+02
  23.300  0.4996E+00  0.1655E+02
  23.350  0.5271E+00  0.1657E+02
  23.400  0.5421E+00  0.1660E+02
  23.450  0.5541E+00  0.1663E+02
  23.500  0.5723E+00  0.1666E+02
  23.550  0.6002E+00  0.1669E+02
  23.600  0.6339E+00  0.1672E+02
  23.650  0.6634E+00  0.1675E+02
  23.700  0.6767E+00  0.1679E+02
  23.750  0.6648E+00  0.1682E+02
  23.800  0.6248E+00  0.1685E+02
  23.850  0.5608E+00  0.1688E+02
  23.900  0.4820E+00  0.1690E+02
  23.950  0.4004E+00  0.1692E+02
  24.000  0.3274E+00  0.1694E+02
  24.050  0.2720E+00  0.1695E+02
  24.100  0.2391E+00  0.1696E+02
  24.150  0.2288E+00  0.1698E+02
  24.200  0.2374E+00  0.1699E+02
  24.250  0.2578E+00  0.1700E+02
  24.300  0.2811E+00  0.1701E+02
  24.350  0.2995E+00  0.1703E+02
  24.400  0.3071E+00  0.1705E+02
  24.450  0.3019E+00  0.1706E+02
  24.500  0.2861E+00  0.1707E+02
  24.550  0.2653E+00  0.1709E+02
  24.600  0.2473E+00  0.1710E+02
  24.650  0.2400E+00  0.1711E+02
  24.700  0.2493E+00  0.1712E+02
  24.750  0.2777E+00  0.1714E+02
  24.800  0.3230E+00  0.1715E+02
  24.850  0.3786E+00  0.1717E+02
  24.900  0.4343E+00  0.1720E+02
  24.950  0.4782E+00  0.1722E+02
  25.000  0.5001E+00  0.1724E+02
  25.050  0.4938E+00  0.1727E+02
  25.100  0.4595E+00  0.1729E+02
  25.150  0.4045E+00  0.1731E+02
  25.200  0.3406E+00  0.1733E+02
  25.250  0.2818E+00  0.1734E+02
  25.300  0.2399E+00  0.1736E+02
  25.350  0.2215E+00  0.1737E+02
  25.400  0.2265E+00  0.1738E+02
  25.450  0.2486E+00  0.1739E+02
  25.500  0.2770E+00  0.1740E+02
  25.550  0.3000E+00  0.1742E+02
  25.600  0.3087E+00  0.1743E+02
  25.650  0.2995E+00  0.1745E+02
  25.700  0.2750E+00  0.1746E+02
  25.750  0.2430E+00  0.1748E+02
  25.800  0.2129E+00  0.1749E+02
  25.850  0.1927E+00  0.1750E+02
  25.900  0.1864E+00  0.1750E+02
  25.950  0.1935E+00  0.1751E+02
  26.000  0.2106E+00  0.1753E+02
  26.050  0.2328E+00  0.1754E+02
  26.100  0.2562E+00  0.1755E+02
  26.150  0.2788E+00  0.1756E+02
  26.200  0.3005E+00  0.1758E+02
  26.250  0.3228E+00  0.1759E+02
  26.300  0.3468E+00  0.1761E+02
  26.350  0.3719E+00  0.1763E+02
  26.400  0.3948E+00  0.1765E+02
  26.450  0.4097E+00  0.1767E+02
  26.500  0.4105E+00  0.1769E+02
  26.550  0.3927E+00  0.1771E+02
  26.600  0.3562E+00  0.1773E+02
  26.650  0.3049E+00  0.1774E+02
  26.700  0.2468E+00  0.1776E+02
  26.750  0.1903E+00  0.1777E+02
  26.800  0.1432E+00  0.1777E+02
  26.850  0.1102E+00  0.1778E+02
  26.900  0.9325E-01  0.1778E+02
  26.950  0.9206E-01  0.1779E+02
  27.000  0.1047E+00  0.1779E+02
  27.050  0.1279E+00  0.1780E+02
  27.100  0.1575E+00  0.1781E+02
  27.150  0.1885E+00  0.1782E+02
  27.200  0.2160E+00  0.1783E+02
  27.250  0.2366E+00  0.1784E+02
  27.300  0.2494E+00  0.1785E+02
  27.350  0.2560E+00  0.1786E+02
  27.400  0.2591E+00  0.1788E+02
  27.450  0.2610E+00  0.1789E+02
  27.500  0.2619E+00  0.1790E+02
  27.550  0.2603E+00  0.1792E+02
  27.600  0.2538E+00  0.1793E+02
  27.650  0.2405E+00  0.1794E+02
  27.700  0.2200E+00  0.1795E+02
  27.750  0.1944E+00  0.1796E+02
  27.800  0.1677E+00  0.1797E+02
  27.850  0.1457E+00  0.1798E+02
  27.900  0.1352E+00  0.1798E+02
  27.950  0.1426E+00  0.1799E+02
  28.000  0.1725E+00  0.1800E+02
  28.050  0.2250E+00  0.1801E+02
  28.100  0.2947E+00  0.1803E+02
  28.150  0.3706E+00  0.1804E+02
  28.200  0.4378E+00  0.1807E+02
  28.250  0.4815E+00  0.1809E+02
  28.300  0.4919E+00  0.1812E+02
  28.350  0.4676E+00  0.1814E+02
  28.400  0.4167E+00  0.1816E+02
  28.450  0.3550E+00  0.1818E+02
  28.500  0.3009E+00  0.1819E+02
  28.550  0.2704E+00  0.1821E+02
  28.600  0.2727E+00  0.1822E+02
  28.650  0.3074E+00  0.1823E+02
  28.700  0.3663E+00  0.1825E+02
  28.750  0.4361E+00  0.1828E+02
  28.800  0.5028E+00  0.1830E+02
  28.850  0.5558E+00  0.1833E+02
  28.900  0.5894E+00  0.1836E+02
  28.950  0.6024E+00  0.1839E+02
  29.000  0.5967E+00  0.1842E+02
  29.050  0.5751E+00  0.1845E+02
  29.100  0.5410E+00  0.1847E+02
  29.150  0.4983E+00  0.1850E+02
  29.200  0.4523E+00  0.1852E+02
  29.250  0.4105E+00  0.1854E+02
  29.300  0.3826E+00  0.1856E+02
  29.350  0.3787E+00  0.1858E+02
  29.400  0.4070E+00  0.1860E+02
  29.450  0.4701E+00  0.1862E+02
  29.500  0.5628E+00  0.1865E+02
  29.550  0.6721E+00  0.1868E+02
  29.600  0.7798E+00  0.1872E+02
  29.650  0.8672E+00  0.1877E+02
  29.700  0.9208E+00  0.1881E+02
  29.750  0.9350E+00  0.1886E+02
  29.800  0.9129E+00  0.1891E+02
  29.850  0.8637E+00  0.1895E+02
  29.900  0.7993E+00  0.1899E+02
  29.950  0.7308E+00  0.1903E+02
  30.000  0.6670E+00  0.1906E+02
  30.050  0.6136E+00  0.1909E+02
  30.100  0.5739E+00  0.1912E+02
  30.150  0.5491E+00  0.1915E+02
  30.200  0.5386E+00  0.1917E+02
  30.250  0.5407E+00  0.1920E+02
  30.300  0.5546E+00  0.1923E+02
  30.350  0.5815E+00  0.1926E+02
  30.400  0.6258E+00  0.1929E+02
  30.450  0.6930E+00  0.1932E+02
  30.500  0.7868E+00  0.1936E+02
  30.550  0.9054E+00  0.1941E+02
  30.600  0.1040E+01  0.1946E+02
  30.650  0.1173E+01  0.1952E+02
  30.700  0.1286E+01  0.1958E+02
  30.750  0.1359E+01  0.1965E+02
  30.800  0.1379E+01  0.1972E+02
  30.850  0.1340E+01  0.1979E+02
  30.900  0.1247E+01  0.1985E+02
  30.950  0.1110E+01  0.1990E+02
  31.000  0.9490E+00  0.1995E+02
  31.050  0.7851E+00  0.1999E+02
  31.100  0.6390E+00  0.2002E+02
  31.150  0.5273E+00  0.2005E+02
  31.200  0.4608E+00  0.2007E+02
  31.250  0.4434E+00  0.2009E+02
  31.300  0.4727E+00  0.2012E+02
  31.350  0.5401E+00  0.2014E+02
  31.400  0.6330E+00  0.2018E+02
  31.450  0.7360E+00  0.2021E+02
  31.500  0.8334E+00  0.2025E+02
  31.550  0.9120E+00  0.2030E+02
  31.600  0.9641E+00  0.2035E+02
  31.650  0.9883E+00  0.2040E+02
  31.700  0.9896E+00  0.2045E+02
  31.750  0.9774E+00  0.2050E+02
  31.800  0.9618E+00  0.2054E+02
  31.850  0.9497E+00  0.2059E+02
  31.900  0.9424E+00  0.2064E+02
  31.950  0.9349E+00  0.2069E+02
  32.000  0.9180E+00  0.2073E+02
  32.050  0.8827E+00  0.2078E+02
  32.100  0.8240E+00  0.2082E+02
  32.150  0.7446E+00  0.2085E+02
  32.200  0.6557E+00  0.2089E+02
  32.250  0.5742E+00  0.2092E+02
  32.300  0.5184E+00  0.2094E+02
  32.350  0.5009E+00  0.2097E+02
  32.400  0.5249E+00  0.2099E+02
  32.450  0.5827E+00  0.2102E+02
  32.500  0.6590E+00  0.2105E+02
  32.550  0.7365E+00  0.2109E+02
  32.600  0.8014E+00  0.2113E+02
  32.650  0.8470E+00  0.2117E+02
  32.700  0.8732E+00  0.2122E+02
  32.750  0.8840E+00  0.2126E+02
  32.800  0.8848E+00  0.2131E+02
  32.850  0.8795E+00  0.2135E+02
  32.900  0.8708E+00  0.2139E+02
  32.950  0.8598E+00  0.2144E+02
  33.000  0.8466E+00  0.2148E+02
  33.050  0.8307E+00  0.2152E+02
  33.100  0.8106E+00  0.2156E+02
  33.150  0.7854E+00  0.2160E+02
  33.200  0.7549E+00  0.2164E+02
  33.250  0.7218E+00  0.2167E+02
  33.300  0.6919E+00  0.2171E+02
  33.350  0.6733E+00  0.2174E+02
  33.400  0.6737E+00  0.2178E+02
  33.450  0.6968E+00  0.2181E+02
  33.500  0.7397E+00  0.2185E+02
  33.550  0.7920E+00  0.2189E+02
  33.600  0.8394E+00  0.2193E+02
  33.650  0.8687E+00  0.2197E+02
  33.700  0.8738E+00  0.2202E+02
  33.750  0.8592E+00  0.2206E+02
  33.800  0.8380E+00  0.2210E+02
  33.850  0.8260E+00  0.2214E+02
  33.900  0.8343E+00  0.2218E+02
  33.950  0.8631E+00  0.2223E+02
  34.000  0.9022E+00  0.2227E+02
  34.050  0.9354E+00  0.2232E+02
  34.100  0.9497E+00  0.2237E+02
  34.150  0.9414E+00  0.2241E+02
  34.200  0.9183E+00  0.2246E+02
  34.250  0.8956E+00  0.2250E+02
  34.300  0.8880E+00  0.2255E+02
  34.350  0.9022E+00  0.2259E+02
  34.400  0.9326E+00  0.2264E+02
  34.450  0.9638E+00  0.2269E+02
  34.500  0.9760E+00  0.2274E+02
  34.550  0.9537E+00  0.2279E+02
  34.600  0.8914E+00  0.2283E+02
  34.650  0.7961E+00  0.2287E+02
  34.700  0.6850E+00  0.2290E+02
  34.750  0.5798E+00  0.2293E+02
  34.800  0.5007E+00  0.2296E+02
  34.850  0.4609E+00  0.2298E+02
  34.900  0.4638E+00  0.2300E+02
  34.950  0.5026E+00  0.2303E+02
  35.000  0.5630E+00  0.2306E+02
  35.050  0.6274E+00  0.2309E+02
  35.100  0.6798E+00  0.2312E+02
  35.150  0.7105E+00  0.2316E+02
  35.200  0.7176E+00  0.2319E+02
  35.250  0.7062E+00  0.2323E+02
  35.300  0.6846E+00  0.2326E+02
  35.350  0.6600E+00  0.2330E+02
  35.400  0.6359E+00  0.2333E+02
  35.450  0.6122E+00  0.2336E+02
  35.500  0.5871E+00  0.2339E+02
  35.550  0.5593E+00  0.2342E+02
  35.600  0.5294E+00  0.2344E+02
  35.650  0.4992E+00  0.2347E+02
  35.700  0.4706E+00  0.2349E+02
  35.750  0.4442E+00  0.2351E+02
  35.800  0.4200E+00  0.2354E+02
  35.850  0.3984E+00  0.2355E+02
  35.900  0.3811E+00  0.2357E+02
  35.950  0.3708E+00  0.2359E+02
  36.000  0.3697E+00  0.2361E+02
  36.050  0.3781E+00  0.2363E+02
  36.100  0.3934E+00  0.2365E+02
  36.150  0.4122E+00  0.2367E+02
  36.200  0.4318E+00  0.2369E+02
  36.250  0.4524E+00  0.2371E+02
  36.300  0.4773E+00  0.2374E+02
  36.350  0.5118E+00  0.2376E+02
  36.400  0.5597E+00  0.2379E+02
  36.450  0.6215E+00  0.2382E+02
  36.500  0.6928E+00  0.2386E+02
  36.550  0.7668E+00  0.2390E+02
  36.600  0.8370E+00  0.2394E+02
  36.650  0.9018E+00  0.2398E+02
  36.700  0.9648E+00  0.2403E+02
  36.750  0.1032E+01  0.2408E+02
  36.800  0.1108E+01  0.2414E+02
  36.850  0.1186E+01  0.2420E+02
  36.900  0.1254E+01  0.2426E+02
  36.950  0.1292E+01  0.2432E+02
  37.000  0.1286E+01  0.2439E+02
  37.050  0.1234E+01  0.2445E+02
  37.100  0.1147E+01  0.2451E+02
  37.150  0.1046E+01  0.2456E+02
  37.200  0.9556E+00  0.2461E+02
  37.250  0.8909E+00  0.2465E+02
  37.300  0.8554E+00  0.2470E+02
  37.350  0.8411E+00  0.2474E+02
  37.400  0.8335E+00  0.2478E+02
  37.450  0.8179E+00  0.2482E+02
  37.500  0.7842E+00  0.2486E+02
  37.550  0.7289E+00  0.2490E+02
  37.600  0.6555E+00  0.2493E+02
  37.650  0.5731E+00  0.2496E+02
  37.700  0.4948E+00  0.2498E+02
  37.750  0.4351E+00  0.2500E+02
  37.800  0.4066E+00  0.2502E+02
  37.850  0.4160E+00  0.2504E+02
  37.900  0.4616E+00  0.2507E+02
  37.950  0.5324E+00  0.2509E+02
  38.000  0.6116E+00  0.2513E+02
  38.050  0.6810E+00  0.2516E+02
  38.100  0.7274E+00  0.2520E+02
  38.150  0.7457E+00  0.2523E+02
  38.200  0.7388E+00  0.2527E+02
  38.250  0.7156E+00  0.2531E+02
  38.300  0.6868E+00  0.2534E+02
  38.350  0.6618E+00  0.2537E+02
  38.400  0.6467E+00  0.2541E+02
  38.450  0.6440E+00  0.2544E+02
  38.500  0.6523E+00  0.2547E+02
  38.550  0.6669E+00  0.2550E+02
  38.600  0.6814E+00  0.2554E+02
  38.650  0.6887E+00  0.2557E+02
  38.700  0.6837E+00  0.2561E+02
  38.750  0.6646E+00  0.2564E+02
  38.800  0.6338E+00  0.2567E+02
  38.850  0.5966E+00  0.2570E+02
  38.900  0.5592E+00  0.2573E+02
  38.950  0.5258E+00  0.2576E+02
  39.000  0.4979E+00  0.2578E+02
  39.050  0.4739E+00  0.2580E+02
  39.100  0.4514E+00  0.2583E+02
  39.150  0.4293E+00  0.2585E+02
  39.200  0.4093E+00  0.2587E+02
  39.250  0.3957E+00  0.2589E+02
  39.300  0.3942E+00  0.2591E+02
  39.350  0.4099E+00  0.2593E+02
  39.400  0.4459E+00  0.2595E+02
  39.450  0.5025E+00  0.2598E+02
  39.500  0.5759E+00  0.2600E+02
  39.550  0.6574E+00  0.2604E+02
  39.600  0.7333E+00  0.2607E+02
  39.650  0.7873E+00  0.2611E+02
  39.700  0.8045E+00  0.2615E+02
  39.750  0.7769E+00  0.2619E+02
  39.800  0.7068E+00  0.2623E+02
  39.850  0.6070E+00  0.2626E+02
  39.900  0.4974E+00  0.2628E+02
  39.950  0.3998E+00  0.2630E+02
  40.000  0.3323E+00  0.2632E+02
  40.050  0.3062E+00  0.2633E+02
  40.100  0.3246E+00  0.2635E+02
  40.150  0.3824E+00  0.2637E+02
  40.200  0.4689E+00  0.2639E+02
  40.250  0.5693E+00  0.2642E+02
  40.300  0.6686E+00  0.2646E+02
  40.350  0.7533E+00  0.2649E+02
  40.400  0.8148E+00  0.2653E+02
  40.450  0.8496E+00  0.2658E+02
  40.500  0.8604E+00  0.2662E+02
  40.550  0.8555E+00  0.2666E+02
  40.600  0.8467E+00  0.2670E+02
  40.650  0.8471E+00  0.2675E+02
  40.700  0.8664E+00  0.2679E+02
  40.750  0.9075E+00  0.2684E+02
  40.800  0.9650E+00  0.2688E+02
  40.850  0.1026E+01  0.2694E+02
  40.900  0.1074E+01  0.2699E+02
  40.950  0.1097E+01  0.2704E+02
  41.000  0.1086E+01  0.2710E+02
  41.050  0.1044E+01  0.2715E+02
  41.100  0.9793E+00  0.2720E+02
  41.150  0.9035E+00  0.2724E+02
  41.200  0.8280E+00  0.2729E+02
  41.250  0.7603E+00  0.2732E+02
  41.300  0.7031E+00  0.2736E+02
  41.350  0.6547E+00  0.2739E+02
  41.400  0.6120E+00  0.2742E+02
  41.450  0.5725E+00  0.2745E+02
  41.500  0.5369E+00  0.2748E+02
  41.550  0.5092E+00  0.2750E+02
  41.600  0.4956E+00  0.2753E+02
  41.650  0.5016E+00  0.2755E+02
  41.700  0.5299E+00  0.2758E+02
  41.750  0.5781E+00  0.2761E+02
  41.800  0.6393E+00  0.2764E+02
  41.850  0.7043E+00  0.2768E+02
  41.900  0.7649E+00  0.2771E+02
  41.950  0.8165E+00  0.2775E+02
  42.000  0.8593E+00  0.2780E+02
  42.050  0.8961E+00  0.2784E+02
  42.100  0.9295E+00  0.2789E+02
  42.150  0.9591E+00  0.2794E+02
  42.200  0.9808E+00  0.2799E+02
  42.250  0.9879E+00  0.2804E+02
  42.300  0.9742E+00  0.2808E+02
  42.350  0.9368E+00  0.2813E+02
  42.400  0.8767E+00  0.2817E+02
  42.450  0.7990E+00  0.2821E+02
  42.500  0.7110E+00  0.2825E+02
  42.550  0.6208E+00  0.2828E+02
  42.600  0.5365E+00  0.2831E+02
  42.650  0.4650E+00  0.2833E+02
  42.700  0.4119E+00  0.2835E+02
  42.750  0.3813E+00  0.2837E+02
  42.800  0.3752E+00  0.2839E+02
  42.850  0.3942E+00  0.2841E+02
  42.900  0.4372E+00  0.2843E+02
  42.950  0.5010E+00  0.2846E+02
  43.000  0.5806E+00  0.2849E+02
  43.050  0.6689E+00  0.2852E+02
  43.100  0.7576E+00  0.2856E+02
  43.150  0.8391E+00  0.2860E+02
  43.200  0.9081E+00  0.2864E+02
  43.250  0.9634E+00  0.2869E+02
  43.300  0.1007E+01  0.2874E+02
  43.350  0.1042E+01  0.2879E+02
  43.400  0.1070E+01  0.2885E+02
  43.450  0.1087E+01  0.2890E+02
  43.500  0.1088E+01  0.2896E+02
  43.550  0.1068E+01  0.2901E+02
  43.600  0.1028E+01  0.2906E+02
  43.650  0.9776E+00  0.2911E+02
  43.700  0.9327E+00  0.2916E+02
  43.750  0.9087E+00  0.2920E+02
  43.800  0.9140E+00  0.2925E+02
  43.850  0.9450E+00  0.2930E+02
  43.900  0.9878E+00  0.2935E+02
  43.950  0.1024E+01  0.2940E+02
  44.000  0.1037E+01  0.2945E+02
  44.050  0.1022E+01  0.2950E+02
  44.100  0.9825E+00  0.2955E+02
  44.150  0.9313E+00  0.2959E+02
  44.200  0.8812E+00  0.2964E+02
  44.250  0.8410E+00  0.2968E+02
  44.300  0.8140E+00  0.2972E+02
  44.350  0.7989E+00  0.2976E+02
  44.400  0.7929E+00  0.2980E+02
  44.450  0.7946E+00  0.2984E+02
  44.500  0.8032E+00  0.2988E+02
  44.550  0.8184E+00  0.2992E+02
  44.600  0.8379E+00  0.2996E+02
  44.650  0.8580E+00  0.3001E+02
  44.700  0.8747E+00  0.3005E+02
  44.750  0.8860E+00  0.3009E+02
  44.800  0.8921E+00  0.3014E+02
  44.850  0.8955E+00  0.3018E+02
  44.900  0.8987E+00  0.3023E+02
  44.950  0.9045E+00  0.3027E+02
  45.000  0.9150E+00  0.3032E+02
  45.050  0.9328E+00  0.3037E+02
  45.100  0.9596E+00  0.3041E+02
  45.150  0.9941E+00  0.3046E+02
  45.200  0.1030E+01  0.3052E+02
  45.250  0.1058E+01  0.3057E+02
  45.300  0.1065E+01  0.3062E+02
  45.350  0.1042E+01  0.3067E+02
  45.400  0.9894E+00  0.3072E+02
  45.450  0.9139E+00  0.3077E+02
  45.500  0.8315E+00  0.3081E+02
  45.550  0.7608E+00  0.3085E+02
  45.600  0.7198E+00  0.3089E+02
  45.650  0.7207E+00  0.3092E+02
  45.700  0.7670E+00  0.3096E+02
  45.750  0.8520E+00  0.3100E+02
  45.800  0.9596E+00  0.3105E+02
  45.850  0.1069E+01  0.3110E+02
  45.900  0.1162E+01  0.3116E+02
  45.950  0.1223E+01  0.3122E+02
  46.000  0.1249E+01  0.3129E+02
  46.050  0.1240E+01  0.3135E+02
  46.100  0.1203E+01  0.3141E+02
  46.150  0.1143E+01  0.3146E+02
  46.200  0.1070E+01  0.3152E+02
  46.250  0.9896E+00  0.3157E+02
  46.300  0.9131E+00  0.3161E+02
  46.350  0.8491E+00  0.3166E+02
  46.400  0.8041E+00  0.3170E+02
  46.450  0.7803E+00  0.3173E+02
  46.500  0.7751E+00  0.3177E+02
  46.550  0.7826E+00  0.3181E+02
  46.600  0.7948E+00  0.3185E+02
  46.650  0.8039E+00  0.3189E+02
  46.700  0.8030E+00  0.3193E+02
  46.750  0.7876E+00  0.3197E+02
  46.800  0.7558E+00  0.3201E+02
  46.850  0.7092E+00  0.3205E+02
  46.900  0.6528E+00  0.3208E+02
  46.950  0.5936E+00  0.3211E+02
  47.000  0.5394E+00  0.3213E+02
  47.050  0.4972E+00  0.3216E+02
  47.100  0.4728E+00  0.3218E+02
  47.150  0.4701E+00  0.3221E+02
  47.200  0.4918E+00  0.3223E+02
  47.250  0.5384E+00  0.3226E+02
  47.300  0.6084E+00  0.3229E+02
  47.350  0.6971E+00  0.3232E+02
  47.400  0.7961E+00  0.3236E+02
  47.450  0.8935E+00  0.3241E+02
  47.500  0.9764E+00  0.3246E+02
  47.550  0.1035E+01  0.3251E+02
  47.600  0.1066E+01  0.3256E+02
  47.650  0.1076E+01  0.3262E+02
  47.700  0.1077E+01  0.3267E+02
  47.750  0.1086E+01  0.3272E+02
  47.800  0.1111E+01  0.3278E+02
  47.850  0.1154E+01  0.3284E+02
  47.900  0.1204E+01  0.3290E+02
  47.950  0.1243E+01  0.3296E+02
  48.000  0.1258E+01  0.3302E+02
  48.050  0.1237E+01  0.3308E+02
  48.100  0.1181E+01  0.3314E+02
  48.150  0.1099E+01  0.3320E+02
  48.200  0.1005E+01  0.3325E+02
  48.250  0.9139E+00  0.3329E+02
  48.300  0.8397E+00  0.3334E+02
  48.350  0.7931E+00  0.3338E+02
  48.400  0.7810E+00  0.3341E+02
  48.450  0.8055E+00  0.3346E+02
  48.500  0.8629E+00  0.3350E+02
  48.550  0.9436E+00  0.3355E+02
  48.600  0.1033E+01  0.3360E+02
  48.650  0.1114E+01  0.3365E+02
  48.700  0.1172E+01  0.3371E+02
  48.750  0.1194E+01  0.3377E+02
  48.800  0.1172E+01  0.3383E+02
  48.850  0.1106E+01  0.3388E+02
  48.900  0.9996E+00  0.3393E+02
  48.950  0.8647E+00  0.3398E+02
  49.000  0.7199E+00  0.3401E+02
  49.050  0.5871E+00  0.3404E+02
  49.100  0.4865E+00  0.3407E+02
  49.150  0.4311E+00  0.3409E+02
  49.200  0.4232E+00  0.3411E+02
  49.250  0.4556E+00  0.3413E+02
  49.300  0.5155E+00  0.3416E+02
  49.350  0.5909E+00  0.3419E+02
  49.400  0.6742E+00  0.3422E+02
  49.450  0.7619E+00  0.3426E+02
  49.500  0.8515E+00  0.3430E+02
  49.550  0.9377E+00  0.3435E+02
  49.600  0.1011E+01  0.3440E+02
  49.650  0.1059E+01  0.3445E+02
  49.700  0.1074E+01  0.3451E+02
  49.750  0.1053E+01  0.3456E+02
  49.800  0.1001E+01  0.3461E+02
  49.850  0.9292E+00  0.3466E+02
  49.900  0.8511E+00  0.3470E+02
  49.950  0.7761E+00  0.3474E+02
  50.000  0.7093E+00  0.3477E+02
  50.050  0.6514E+00  0.3481E+02
  50.100  0.6008E+00  0.3484E+02
  50.150  0.5566E+00  0.3486E+02
  50.200  0.5198E+00  0.3489E+02
  50.250  0.4945E+00  0.3491E+02
  50.300  0.4873E+00  0.3494E+02
  50.350  0.5048E+00  0.3496E+02
  50.400  0.5509E+00  0.3499E+02
  50.450  0.6238E+00  0.3502E+02
  50.500  0.7156E+00  0.3506E+02
  50.550  0.8147E+00  0.3510E+02
  50.600  0.9098E+00  0.3514E+02
  50.650  0.9932E+00  0.3519E+02
  50.700  0.1062E+01  0.3525E+02
  50.750  0.1117E+01  0.3530E+02
  50.800  0.1158E+01  0.3536E+02
  50.850  0.1182E+01  0.3542E+02
  50.900  0.1186E+01  0.3548E+02
  50.950  0.1169E+01  0.3554E+02
  51.000  0.1134E+01  0.3559E+02
  51.050  0.1087E+01  0.3565E+02
  51.100  0.1040E+01  0.3570E+02
  51.150  0.1002E+01  0.3575E+02
  51.200  0.9830E+00  0.3580E+02
  51.250  0.9872E+00  0.3585E+02
  51.300  0.1015E+01  0.3590E+02
  51.350  0.1063E+01  0.3595E+02
  51.400  0.1124E+01  0.3601E+02
  51.450  0.1192E+01  0.3607E+02
  51.500  0.1258E+01  0.3613E+02
  51.550  0.1317E+01  0.3620E+02
  51.600  0.1365E+01  0.3627E+02
  51.650  0.1399E+01  0.3634E+02
  51.700  0.1418E+01  0.3641E+02
  51.750  0.1423E+01  0.3648E+02
  51.800  0.1412E+01  0.3655E+02
  51.850  0.1386E+01  0.3662E+02
  51.900  0.1343E+01  0.3669E+02
  51.950  0.1284E+01  0.3675E+02
  52.000  0.1215E+01  0.3681E+02
  52.050  0.1140E+01  0.3687E+02
  52.100  0.1069E+01  0.3692E+02
  52.150  0.1004E+01  0.3697E+02
  52.200  0.9464E+00  0.3702E+02
  52.250  0.8936E+00  0.3706E+02
  52.300  0.8413E+00  0.3711E+02
  52.350  0.7871E+00  0.3714E+02
  52.400  0.7326E+00  0.3718E+02
  52.450  0.6837E+00  0.3722E+02
  52.500  0.6503E+00  0.3725E+02
  52.550  0.6434E+00  0.3728E+02
  52.600  0.6717E+00  0.3731E+02
  52.650  0.7374E+00  0.3735E+02
  52.700  0.8338E+00  0.3739E+02
  52.750  0.9445E+00  0.3744E+02
  52.800  0.1047E+01  0.3749E+02
  52.850  0.1118E+01  0.3755E+02
  52.900  0.1142E+01  0.3760E+02
  52.950  0.1114E+01  0.3766E+02
  53.000  0.1041E+01  0.3771E+02
  53.050  0.9410E+00  0.3776E+02
  53.100  0.8340E+00  0.3780E+02
  53.150  0.7400E+00  0.3784E+02
  53.200  0.6728E+00  0.3787E+02
  53.250  0.6394E+00  0.3790E+02
  53.300  0.6401E+00  0.3794E+02
  53.350  0.6710E+00  0.3797E+02
  53.400  0.7254E+00  0.3801E+02
  53.450  0.7960E+00  0.3805E+02
  53.500  0.8755E+00  0.3809E+02
  53.550  0.9566E+00  0.3814E+02
  53.600  0.1033E+01  0.3819E+02
  53.650  0.1100E+01  0.3824E+02
  53.700  0.1154E+01  0.3830E+02
  53.750  0.1195E+01  0.3836E+02
  53.800  0.1222E+01  0.3842E+02
  53.850  0.1236E+01  0.3848E+02
  53.900  0.1236E+01  0.3855E+02
  53.950  0.1218E+01  0.3861E+02
  54.000  0.1180E+01  0.3867E+02
  54.050  0.1125E+01  0.3872E+02
  54.100  0.1059E+01  0.3878E+02
  54.150  0.9923E+00  0.3882E+02
  54.200  0.9357E+00  0.3887E+02
  54.250  0.8989E+00  0.3892E+02
  54.300  0.8870E+00  0.3896E+02
  54.350  0.9002E+00  0.3901E+02
  54.400  0.9344E+00  0.3905E+02
  54.450  0.9823E+00  0.3910E+02
  54.500  0.1034E+01  0.3915E+02
  54.550  0.1079E+01  0.3921E+02
  54.600  0.1107E+01  0.3926E+02
  54.650  0.1110E+01  0.3932E+02
  54.700  0.1084E+01  0.3937E+02
  54.750  0.1032E+01  0.3942E+02
  54.800  0.9667E+00  0.3947E+02
  54.850  0.9029E+00  0.3952E+02
  54.900  0.8577E+00  0.3956E+02
  54.950  0.8432E+00  0.3960E+02
  55.000  0.8636E+00  0.3965E+02
  55.050  0.9143E+00  0.3969E+02
  55.100  0.9846E+00  0.3974E+02
  55.150  0.1062E+01  0.3979E+02
  55.200  0.1136E+01  0.3985E+02
  55.250  0.1201E+01  0.3991E+02
  55.300  0.1251E+01  0.3997E+02
  55.350  0.1284E+01  0.4004E+02
  55.400  0.1297E+01  0.4010E+02
  55.450  0.1290E+01  0.4017E+02
  55.500  0.1261E+01  0.4023E+02
  55.550  0.1213E+01  0.4029E+02
  55.600  0.1154E+01  0.4035E+02
  55.650  0.1092E+01  0.4040E+02
  55.700  0.1037E+01  0.4045E+02
  55.750  0.9964E+00  0.4050E+02
  55.800  0.9708E+00  0.4055E+02
  55.850  0.9579E+00  0.4060E+02
  55.900  0.9523E+00  0.4065E+02
  55.950  0.9488E+00  0.4070E+02
  56.000  0.9444E+00  0.4074E+02
  56.050  0.9385E+00  0.4079E+02
  56.100  0.9327E+00  0.4084E+02
  56.150  0.9289E+00  0.4088E+02
  56.200  0.9293E+00  0.4093E+02
  56.250  0.9347E+00  0.4098E+02
  56.300  0.9442E+00  0.4102E+02
  56.350  0.9536E+00  0.4107E+02
  56.400  0.9551E+00  0.4112E+02
  56.450  0.9392E+00  0.4117E+02
  56.500  0.8984E+00  0.4121E+02
  56.550  0.8321E+00  0.4125E+02
  56.600  0.7477E+00  0.4129E+02
  56.650  0.6598E+00  0.4132E+02
  56.700  0.5850E+00  0.4135E+02
  56.750  0.5370E+00  0.4138E+02
  56.800  0.5225E+00  0.4140E+02
  56.850  0.5404E+00  0.4143E+02
  56.900  0.5832E+00  0.4146E+02
  56.950  0.6395E+00  0.4149E+02
  57.000  0.6976E+00  0.4153E+02
  57.050  0.7489E+00  0.4157E+02
  57.100  0.7894E+00  0.4160E+02
  57.150  0.8212E+00  0.4165E+02
  57.200  0.8503E+00  0.4169E+02
  57.250  0.8834E+00  0.4173E+02
  57.300  0.9235E+00  0.4178E+02
  57.350  0.9675E+00  0.4183E+02
  57.400  0.1007E+01  0.4188E+02
  57.450  0.1031E+01  0.4193E+02
  57.500  0.1029E+01  0.4198E+02
  57.550  0.9988E+00  0.4203E+02
  57.600  0.9431E+00  0.4208E+02
  57.650  0.8712E+00  0.4212E+02
  57.700  0.7956E+00  0.4216E+02
  57.750  0.7290E+00  0.4220E+02
  57.800  0.6813E+00  0.4223E+02
  57.850  0.6579E+00  0.4226E+02
  57.900  0.6594E+00  0.4230E+02
  57.950  0.6814E+00  0.4233E+02
  58.000  0.7158E+00  0.4237E+02
  58.050  0.7532E+00  0.4240E+02
  58.100  0.7852E+00  0.4244E+02
  58.150  0.8070E+00  0.4248E+02
  58.200  0.8187E+00  0.4253E+02
  58.250  0.8242E+00  0.4257E+02
  58.300  0.8283E+00  0.4261E+02
  58.350  0.8327E+00  0.4265E+02
  58.400  0.8332E+00  0.4269E+02
  58.450  0.8216E+00  0.4273E+02
  58.500  0.7898E+00  0.4277E+02
  58.550  0.7356E+00  0.4281E+02
  58.600  0.6664E+00  0.4284E+02
  58.650  0.5978E+00  0.4287E+02
  58.700  0.5471E+00  0.4290E+02
  58.750  0.5264E+00  0.4293E+02
  58.800  0.5376E+00  0.4295E+02
  58.850  0.5726E+00  0.4298E+02
  58.900  0.6177E+00  0.4301E+02
  58.950  0.6596E+00  0.4304E+02
  59.000  0.6904E+00  0.4308E+02
  59.050  0.7081E+00  0.4311E+02
  59.100  0.7149E+00  0.4315E+02
  59.150  0.7137E+00  0.4319E+02
  59.200  0.7066E+00  0.4322E+02
  59.250  0.6953E+00  0.4326E+02
  59.300  0.6832E+00  0.4329E+02
  59.350  0.6764E+00  0.4332E+02
  59.400  0.6827E+00  0.4336E+02
  59.450  0.7086E+00  0.4339E+02
  59.500  0.7551E+00  0.4343E+02
  59.550  0.8176E+00  0.4347E+02
  59.600  0.8864E+00  0.4352E+02
  59.650  0.9516E+00  0.4356E+02
  59.700  0.1007E+01  0.4361E+02
  59.750  0.1053E+01  0.4367E+02
  59.800  0.1097E+01  0.4372E+02
  59.850  0.1150E+01  0.4378E+02
  59.900  0.1220E+01  0.4384E+02
  59.950  0.1311E+01  0.4391E+02
  60.000  0.1414E+01  0.4398E+02
  60.050  0.1512E+01  0.4405E+02
  60.100  0.1582E+01  0.4413E+02
  60.150  0.1606E+01  0.4421E+02
  60.200  0.1579E+01  0.4429E+02
  60.250  0.1508E+01  0.4437E+02
  60.300  0.1413E+01  0.4444E+02
  60.350  0.1316E+01  0.4450E+02
  60.400  0.1233E+01  0.4456E+02
  60.450  0.1172E+01  0.4462E+02
  60.500  0.1132E+01  0.4468E+02
  60.550  0.1106E+01  0.4474E+02
  60.600  0.1086E+01  0.4479E+02
  60.650  0.1070E+01  0.4484E+02
  60.700  0.1057E+01  0.4490E+02
  60.750  0.1049E+01  0.4495E+02
  60.800  0.1045E+01  0.4500E+02
  60.850  0.1044E+01  0.4505E+02
  60.900  0.1041E+01  0.4510E+02
  60.950  0.1034E+01  0.4516E+02
  61.000  0.1022E+01  0.4521E+02
  61.050  0.1004E+01  0.4526E+02
  61.100  0.9840E+00  0.4531E+02
  61.150  0.9627E+00  0.4536E+02
  61.200  0.9410E+00  0.4540E+02
  61.250  0.9190E+00  0.4545E+02
  61.300  0.8972E+00  0.4549E+02
  61.350  0.8775E+00  0.4554E+02
  61.400  0.8626E+00  0.4558E+02
  61.450  0.8557E+00  0.4562E+02
  61.500  0.8590E+00  0.4567E+02
  61.550  0.8741E+00  0.4571E+02
  61.600  0.9018E+00  0.4575E+02
  61.650  0.9427E+00  0.4580E+02
  61.700  0.9960E+00  0.4585E+02
  61.750  0.1059E+01  0.4590E+02
  61.800  0.1125E+01  0.4596E+02
  61.850  0.1186E+01  0.4602E+02
  61.900  0.1231E+01  0.4608E+02
  61.950  0.1253E+01  0.4614E+02
  62.000  0.1251E+01  0.4621E+02
  62.050  0.1231E+01  0.4627E+02
  62.100  0.1203E+01  0.4633E+02
  62.150  0.1180E+01  0.4639E+02
  62.200  0.1173E+01  0.4645E+02
  62.250  0.1188E+01  0.4651E+02
  62.300  0.1222E+01  0.4657E+02
  62.350  0.1272E+01  0.4663E+02
  62.400  0.1326E+01  0.4670E+02
  62.450  0.1375E+01  0.4677E+02
  62.500  0.1416E+01  0.4684E+02
  62.550  0.1446E+01  0.4691E+02
  62.600  0.1468E+01  0.4698E+02
  62.650  0.1484E+01  0.4706E+02
  62.700  0.1491E+01  0.4713E+02
  62.750  0.1483E+01  0.4720E+02
  62.800  0.1454E+01  0.4728E+02
  62.850  0.1405E+01  0.4735E+02
  62.900  0.1341E+01  0.4741E+02
  62.950  0.1278E+01  0.4748E+02
  63.000  0.1228E+01  0.4754E+02
  63.050  0.1200E+01  0.4760E+02
  63.100  0.1193E+01  0.4766E+02
  63.150  0.1198E+01  0.4772E+02
  63.200  0.1202E+01  0.4778E+02
  63.250  0.1195E+01  0.4784E+02
  63.300  0.1173E+01  0.4790E+02
  63.350  0.1140E+01  0.4795E+02
  63.400  0.1105E+01  0.4801E+02
  63.450  0.1083E+01  0.4806E+02
  63.500  0.1081E+01  0.4812E+02
  63.550  0.1105E+01  0.4817E+02
  63.600  0.1153E+01  0.4823E+02
  63.650  0.1219E+01  0.4829E+02
  63.700  0.1290E+01  0.4836E+02
  63.750  0.1351E+01  0.4842E+02
  63.800  0.1385E+01  0.4849E+02
  63.850  0.1378E+01  0.4856E+02
  63.900  0.1327E+01  0.4863E+02
  63.950  0.1236E+01  0.4869E+02
  64.000  0.1117E+01  0.4875E+02
  64.050  0.9864E+00  0.4880E+02
  64.100  0.8594E+00  0.4884E+02
  64.150  0.7486E+00  0.4888E+02
  64.200  0.6639E+00  0.4891E+02
  64.250  0.6139E+00  0.4894E+02
  64.300  0.6055E+00  0.4897E+02
  64.350  0.6428E+00  0.4900E+02
  64.400  0.7246E+00  0.4904E+02
  64.450  0.8423E+00  0.4908E+02
  64.500  0.9806E+00  0.4913E+02
  64.550  0.1120E+01  0.4919E+02
  64.600  0.1240E+01  0.4925E+02
  64.650  0.1323E+01  0.4931E+02
  64.700  0.1359E+01  0.4938E+02
  64.750  0.1345E+01  0.4945E+02
  64.800  0.1289E+01  0.4951E+02
  64.850  0.1208E+01  0.4957E+02
  64.900  0.1123E+01  0.4963E+02
  64.950  0.1057E+01  0.4968E+02
  65.000  0.1023E+01  0.4973E+02
  65.050  0.1027E+01  0.4979E+02
  65.100  0.1063E+01  0.4984E+02
  65.150  0.1118E+01  0.4989E+02
  65.200  0.1176E+01  0.4995E+02
  65.250  0.1224E+01  0.5001E+02
  65.300  0.1254E+01  0.5008E+02
  65.350  0.1261E+01  0.5014E+02
  65.400  0.1242E+01  0.5020E+02
  65.450  0.1195E+01  0.5026E+02
  65.500  0.1120E+01  0.5032E+02
  65.550  0.1024E+01  0.5037E+02
  65.600  0.9205E+00  0.5042E+02
  65.650  0.8260E+00  0.5046E+02
  65.700  0.7582E+00  0.5049E+02
  65.750  0.7293E+00  0.5053E+02
  65.800  0.7428E+00  0.5057E+02
  65.850  0.7930E+00  0.5061E+02
  65.900  0.8669E+00  0.5065E+02
  65.950  0.9480E+00  0.5070E+02
  66.000  0.1020E+01  0.5075E+02
  66.050  0.1068E+01  0.5080E+02
  66.100  0.1086E+01  0.5086E+02
  66.150  0.1075E+01  0.5091E+02
  66.200  0.1043E+01  0.5096E+02
  66.250  0.1005E+01  0.5101E+02
  66.300  0.9771E+00  0.5106E+02
  66.350  0.9727E+00  0.5111E+02
  66.400  0.9970E+00  0.5116E+02
  66.450  0.1047E+01  0.5121E+02
  66.500  0.1115E+01  0.5127E+02
  66.550  0.1188E+01  0.5133E+02
  66.600  0.1251E+01  0.5139E+02
  66.650  0.1291E+01  0.5146E+02
  66.700  0.1297E+01  0.5152E+02
  66.750  0.1260E+01  0.5158E+02
  66.800  0.1180E+01  0.5164E+02
  66.850  0.1062E+01  0.5170E+02
  66.900  0.9212E+00  0.5174E+02
  66.950  0.7809E+00  0.5178E+02
  67.000  0.6672E+00  0.5181E+02
  67.050  0.6052E+00  0.5184E+02
  67.100  0.6122E+00  0.5187E+02
  67.150  0.6934E+00  0.5191E+02
  67.200  0.8390E+00  0.5195E+02
  67.250  0.1025E+01  0.5200E+02
  67.300  0.1218E+01  0.5206E+02
  67.350  0.1383E+01  0.5213E+02
  67.400  0.1492E+01  0.5221E+02
  67.450  0.1533E+01  0.5228E+02
  67.500  0.1507E+01  0.5236E+02
  67.550  0.1431E+01  0.5243E+02
  67.600  0.1331E+01  0.5250E+02
  67.650  0.1232E+01  0.5256E+02
  67.700  0.1154E+01  0.5262E+02
  67.750  0.1105E+01  0.5267E+02
  67.800  0.1081E+01  0.5273E+02
  67.850  0.1067E+01  0.5278E+02
  67.900  0.1049E+01  0.5283E+02
  67.950  0.1015E+01  0.5288E+02
  68.000  0.9633E+00  0.5293E+02
  68.050  0.9035E+00  0.5298E+02
  68.100  0.8522E+00  0.5302E+02
  68.150  0.8274E+00  0.5306E+02
  68.200  0.8416E+00  0.5310E+02
  68.250  0.8979E+00  0.5315E+02
  68.300  0.9888E+00  0.5320E+02
  68.350  0.1098E+01  0.5325E+02
  68.400  0.1204E+01  0.5331E+02
  68.450  0.1285E+01  0.5338E+02
  68.500  0.1326E+01  0.5344E+02
  68.550  0.1321E+01  0.5351E+02
  68.600  0.1275E+01  0.5357E+02
  68.650  0.1203E+01  0.5363E+02
  68.700  0.1123E+01  0.5369E+02
  68.750  0.1050E+01  0.5374E+02
  68.800  0.9923E+00  0.5379E+02
  68.850  0.9521E+00  0.5384E+02
  68.900  0.9269E+00  0.5388E+02
  68.950  0.9151E+00  0.5393E+02
  69.000  0.9177E+00  0.5398E+02
  69.050  0.9376E+00  0.5402E+02
  69.100  0.9772E+00  0.5407E+02
  69.150  0.1035E+01  0.5412E+02
  69.200  0.1105E+01  0.5418E+02
  69.250  0.1177E+01  0.5424E+02
  69.300  0.1237E+01  0.5430E+02
  69.350  0.1276E+01  0.5436E+02
  69.400  0.1287E+01  0.5443E+02
  69.450  0.1271E+01  0.5449E+02
  69.500  0.1230E+01  0.5455E+02
  69.550  0.1173E+01  0.5461E+02
  69.600  0.1108E+01  0.5467E+02
  69.650  0.1042E+01  0.5472E+02
  69.700  0.9799E+00  0.5477E+02
  69.750  0.9273E+00  0.5481E+02
  69.800  0.8882E+00  0.5486E+02
  69.850  0.8653E+00  0.5490E+02
  69.900  0.8598E+00  0.5494E+02
  69.950  0.8699E+00  0.5499E+02
  70.000  0.8904E+00  0.5503E+02
  70.050  0.9132E+00  0.5508E+02
  70.100  0.9295E+00  0.5512E+02
  70.150  0.9326E+00  0.5517E+02
  70.200  0.9210E+00  0.5522E+02
  70.250  0.8998E+00  0.5526E+02
  70.300  0.8790E+00  0.5531E+02
  70.350  0.8701E+00  0.5535E+02
  70.400  0.8808E+00  0.5539E+02
  70.450  0.9121E+00  0.5544E+02
  70.500  0.9565E+00  0.5549E+02
  70.550  0.1001E+01  0.5554E+02
  70.600  0.1030E+01  0.5559E+02
  70.650  0.1034E+01  0.5564E+02
  70.700  0.1009E+01  0.5569E+02
  70.750  0.9614E+00  0.5574E+02
  70.800  0.9036E+00  0.5578E+02
  70.850  0.8522E+00  0.5583E+02
  70.900  0.8215E+00  0.5587E+02
  70.950  0.8196E+00  0.5591E+02
  71.000  0.8452E+00  0.5595E+02
  71.050  0.8878E+00  0.5600E+02
  71.100  0.9314E+00  0.5604E+02
  71.150  0.9597E+00  0.5609E+02
  71.200  0.9620E+00  0.5614E+02
  71.250  0.9378E+00  0.5618E+02
  71.300  0.8978E+00  0.5623E+02
  71.350  0.8598E+00  0.5627E+02
  71.400  0.8430E+00  0.5631E+02
  71.450  0.8603E+00  0.5636E+02
  71.500  0.9144E+00  0.5640E+02
  71.550  0.9964E+00  0.5645E+02
  71.600  0.1089E+01  0.5651E+02
  71.650  0.1171E+01  0.5657E+02
  71.700  0.1227E+01  0.5663E+02
  71.750  0.1246E+01  0.5669E+02
  71.800  0.1229E+01  0.5675E+02
  71.850  0.1184E+01  0.5681E+02
  71.900  0.1124E+01  0.5687E+02
  71.950  0.1066E+01  0.5692E+02
  72.000  0.1020E+01  0.5697E+02
  72.050  0.9901E+00  0.5702E+02
  72.100  0.9759E+00  0.5707E+02
  72.150  0.9703E+00  0.5712E+02
  72.200  0.9648E+00  0.5717E+02
  72.250  0.9519E+00  0.5721E+02
  72.300  0.9266E+00  0.5726E+02
  72.350  0.8870E+00  0.5730E+02
  72.400  0.8350E+00  0.5735E+02
  72.450  0.7774E+00  0.5739E+02
  72.500  0.7260E+00  0.5742E+02
  72.550  0.6964E+00  0.5746E+02
  72.600  0.7029E+00  0.5749E+02
  72.650  0.7510E+00  0.5753E+02
  72.700  0.8317E+00  0.5757E+02
  72.750  0.9211E+00  0.5762E+02
  72.800  0.9875E+00  0.5767E+02
  72.850  0.1005E+01  0.5772E+02
  72.900  0.9638E+00  0.5776E+02
  72.950  0.8792E+00  0.5781E+02
  73.000  0.7842E+00  0.5785E+02
  73.050  0.7175E+00  0.5788E+02
  73.100  0.7086E+00  0.5792E+02
  73.150  0.7663E+00  0.5796E+02
  73.200  0.8772E+00  0.5800E+02
  73.250  0.1012E+01  0.5805E+02
  73.300  0.1136E+01  0.5811E+02
  73.350  0.1226E+01  0.5817E+02
  73.400  0.1271E+01  0.5823E+02
  73.450  0.1280E+01  0.5830E+02
  73.500  0.1271E+01  0.5836E+02
  73.550  0.1266E+01  0.5842E+02
  73.600  0.1280E+01  0.5849E+02
  73.650  0.1313E+01  0.5855E+02
  73.700  0.1356E+01  0.5862E+02
  73.750  0.1390E+01  0.5869E+02
  73.800  0.1400E+01  0.5876E+02
  73.850  0.1379E+01  0.5883E+02
  73.900  0.1331E+01  0.5890E+02
  73.950  0.1272E+01  0.5896E+02
  74.000  0.1221E+01  0.5902E+02
  74.050  0.1190E+01  0.5908E+02
  74.100  0.1183E+01  0.5914E+02
  74.150  0.1188E+01  0.5920E+02
  74.200  0.1188E+01  0.5926E+02
  74.250  0.1165E+01  0.5932E+02
  74.300  0.1109E+01  0.5937E+02
  74.350  0.1025E+01  0.5942E+02
  74.400  0.9283E+00  0.5947E+02
  74.450  0.8448E+00  0.5951E+02
  74.500  0.7977E+00  0.5955E+02
  74.550  0.8016E+00  0.5959E+02
  74.600  0.8569E+00  0.5964E+02
  74.650  0.9497E+00  0.5968E+02
  74.700  0.1056E+01  0.5974E+02
  74.750  0.1149E+01  0.5979E+02
  74.800  0.1206E+01  0.5985E+02
  74.850  0.1218E+01  0.5991E+02
  74.900  0.1188E+01  0.5997E+02
  74.950  0.1128E+01  0.6003E+02
  75.000  0.1058E+01  0.6008E+02
  75.050  0.9925E+00  0.6013E+02
  75.100  0.9430E+00  0.6018E+02
  75.150  0.9129E+00  0.6023E+02
  75.200  0.9011E+00  0.6027E+02
  75.250  0.9057E+00  0.6032E+02
  75.300  0.9257E+00  0.6036E+02
  75.350  0.9611E+00  0.6041E+02
  75.400  0.1011E+01  0.6046E+02
  75.450  0.1073E+01  0.6051E+02
  75.500  0.1142E+01  0.6057E+02
  75.550  0.1209E+01  0.6063E+02
  75.600  0.1268E+01  0.6069E+02
  75.650  0.1313E+01  0.6076E+02
  75.700  0.1343E+01  0.6083E+02
  75.750  0.1359E+01  0.6090E+02
  75.800  0.1365E+01  0.6096E+02
  75.850  0.1363E+01  0.6103E+02
  75.900  0.1359E+01  0.6110E+02
  75.950  0.1351E+01  0.6117E+02
  76.000  0.1339E+01  0.6123E+02
  76.050  0.1320E+01  0.6130E+02
  76.100  0.1289E+01  0.6137E+02
  76.150  0.1244E+01  0.6143E+02
  76.200  0.1189E+01  0.6149E+02
  76.250  0.1128E+01  0.6154E+02
  76.300  0.1070E+01  0.6160E+02
  76.350  0.1027E+01  0.6165E+02
  76.400  0.1004E+01  0.6170E+02
  76.450  0.1006E+01  0.6175E+02
  76.500  0.1030E+01  0.6180E+02
  76.550  0.1066E+01  0.6185E+02
  76.600  0.1102E+01  0.6191E+02
  76.650  0.1126E+01  0.6196E+02
  76.700  0.1128E+01  0.6202E+02
  76.750  0.1109E+01  0.6208E+02
  76.800  0.1075E+01  0.6213E+02
  76.850  0.1035E+01  0.6218E+02
  76.900  0.9984E+00  0.6223E+02
  76.950  0.9712E+00  0.6228E+02
  77.000  0.9524E+00  0.6233E+02
  77.050  0.9372E+00  0.6237E+02
  77.100  0.9202E+00  0.6242E+02
  77.150  0.8976E+00  0.6247E+02
  77.200  0.8684E+00  0.6251E+02
  77.250  0.8342E+00  0.6255E+02
  77.300  0.7990E+00  0.6259E+02
  77.350  0.7687E+00  0.6263E+02
  77.400  0.7510E+00  0.6267E+02
  77.450  0.7553E+00  0.6270E+02
  77.500  0.7912E+00  0.6274E+02
  77.550  0.8655E+00  0.6279E+02
  77.600  0.9796E+00  0.6284E+02
  77.650  0.1128E+01  0.6289E+02
  77.700  0.1299E+01  0.6296E+02
  77.750  0.1472E+01  0.6303E+02
  77.800  0.1628E+01  0.6311E+02
  77.850  0.1744E+01  0.6320E+02
  77.900  0.1803E+01  0.6329E+02
  77.950  0.1795E+01  0.6338E+02
  78.000  0.1719E+01  0.6347E+02
  78.050  0.1588E+01  0.6355E+02
  78.100  0.1422E+01  0.6362E+02
  78.150  0.1250E+01  0.6368E+02
  78.200  0.1098E+01  0.6373E+02
  78.250  0.9843E+00  0.6378E+02
  78.300  0.9175E+00  0.6383E+02
  78.350  0.8953E+00  0.6387E+02
  78.400  0.9092E+00  0.6392E+02
  78.450  0.9484E+00  0.6397E+02
  78.500  0.1003E+01  0.6402E+02
  78.550  0.1065E+01  0.6407E+02
  78.600  0.1125E+01  0.6413E+02
  78.650  0.1175E+01  0.6418E+02
  78.700  0.1206E+01  0.6425E+02
  78.750  0.1214E+01  0.6431E+02
  78.800  0.1202E+01  0.6437E+02
  78.850  0.1179E+01  0.6442E+02
  78.900  0.1155E+01  0.6448E+02
  78.950  0.1142E+01  0.6454E+02
  79.000  0.1143E+01  0.6460E+02
  79.050  0.1159E+01  0.6465E+02
  79.100  0.1184E+01  0.6471E+02
  79.150  0.1213E+01  0.6477E+02
  79.200  0.1239E+01  0.6484E+02
  79.250  0.1257E+01  0.6490E+02
  79.300  0.1265E+01  0.6496E+02
  79.350  0.1263E+01  0.6503E+02
  79.400  0.1254E+01  0.6509E+02
  79.450  0.1243E+01  0.6515E+02
  79.500  0.1238E+01  0.6521E+02
  79.550  0.1243E+01  0.6527E+02
  79.600  0.1260E+01  0.6534E+02
  79.650  0.1286E+01  0.6540E+02
  79.700  0.1316E+01  0.6547E+02
  79.750  0.1344E+01  0.6554E+02
  79.800  0.1363E+01  0.6560E+02
  79.850  0.1373E+01  0.6567E+02
  79.900  0.1371E+01  0.6574E+02
  79.950  0.1360E+01  0.6581E+02
  80.000  0.1342E+01  0.6588E+02
  80.050  0.1322E+01  0.6594E+02
  80.100  0.1309E+01  0.6601E+02
  80.150  0.1312E+01  0.6607E+02
  80.200  0.1339E+01  0.6614E+02
  80.250  0.1391E+01  0.6621E+02
  80.300  0.1458E+01  0.6628E+02
  80.350  0.1520E+01  0.6636E+02
  80.400  0.1552E+01  0.6644E+02
  80.450  0.1536E+01  0.6651E+02
  80.500  0.1463E+01  0.6659E+02
  80.550  0.1345E+01  0.6665E+02
  80.600  0.1202E+01  0.6671E+02
  80.650  0.1061E+01  0.6677E+02
  80.700  0.9429E+00  0.6681E+02
  80.750  0.8624E+00  0.6686E+02
  80.800  0.8231E+00  0.6690E+02
  80.850  0.8206E+00  0.6694E+02
  80.900  0.8449E+00  0.6698E+02
  80.950  0.8840E+00  0.6702E+02
  81.000  0.9269E+00  0.6707E+02
  81.050  0.9670E+00  0.6712E+02
  81.100  0.1004E+01  0.6717E+02
  81.150  0.1043E+01  0.6722E+02
  81.200  0.1090E+01  0.6728E+02
  81.250  0.1148E+01  0.6733E+02
  81.300  0.1217E+01  0.6739E+02
  81.350  0.1287E+01  0.6746E+02
  81.400  0.1348E+01  0.6753E+02
  81.450  0.1389E+01  0.6760E+02
  81.500  0.1408E+01  0.6767E+02
  81.550  0.1404E+01  0.6774E+02
  81.600  0.1382E+01  0.6781E+02
  81.650  0.1347E+01  0.6787E+02
  81.700  0.1298E+01  0.6794E+02
  81.750  0.1236E+01  0.6800E+02
  81.800  0.1162E+01  0.6806E+02
  81.850  0.1082E+01  0.6811E+02
  81.900  0.1006E+01  0.6816E+02
  81.950  0.9463E+00  0.6821E+02
  82.000  0.9113E+00  0.6826E+02
  82.050  0.9036E+00  0.6830E+02
  82.100  0.9172E+00  0.6835E+02
  82.150  0.9406E+00  0.6839E+02
  82.200  0.9601E+00  0.6844E+02
  82.250  0.9645E+00  0.6849E+02
  82.300  0.9483E+00  0.6854E+02
  82.350  0.9133E+00  0.6858E+02
  82.400  0.8682E+00  0.6863E+02
  82.450  0.8270E+00  0.6867E+02
  82.500  0.8063E+00  0.6871E+02
  82.550  0.8216E+00  0.6875E+02
  82.600  0.8828E+00  0.6879E+02
  82.650  0.9913E+00  0.6884E+02
  82.700  0.1138E+01  0.6890E+02
  82.750  0.1302E+01  0.6896E+02
  82.800  0.1459E+01  0.6904E+02
  82.850  0.1583E+01  0.6912E+02
  82.900  0.1658E+01  0.6920E+02
  82.950  0.1679E+01  0.6928E+02
  83.000  0.1652E+01  0.6937E+02
  83.050  0.1589E+01  0.6945E+02
  83.100  0.1505E+01  0.6952E+02
  83.150  0.1409E+01  0.6959E+02
  83.200  0.1306E+01  0.6966E+02
  83.250  0.1203E+01  0.6972E+02
  83.300  0.1107E+01  0.6977E+02
  83.350  0.1027E+01  0.6982E+02
  83.400  0.9750E+00  0.6987E+02
  83.450  0.9619E+00  0.6992E+02
  83.500  0.9915E+00  0.6997E+02
  83.550  0.1060E+01  0.7002E+02
  83.600  0.1154E+01  0.7008E+02
  83.650  0.1255E+01  0.7014E+02
  83.700  0.1342E+01  0.7021E+02
  83.750  0.1395E+01  0.7028E+02
  83.800  0.1406E+01  0.7035E+02
  83.850  0.1378E+01  0.7042E+02
  83.900  0.1321E+01  0.7049E+02
  83.950  0.1255E+01  0.7055E+02
  84.000  0.1197E+01  0.7061E+02
